#K-Path(1/A) Energy-Level(eV)
# NKPTS & NBANDS: 120  56
# Band-Index    1
   0.00000    -14.316019
   0.01135    -14.315744
   0.02269    -14.314914
   0.03404    -14.313531
   0.04539    -14.311601
   0.05674    -14.309130
   0.06808    -14.306128
   0.07943    -14.302607
   0.09078    -14.298581
   0.10213    -14.294072
   0.11347    -14.289091
   0.12482    -14.283678
   0.13617    -14.277870
   0.14752    -14.271684
   0.15886    -14.265167
   0.17021    -14.258369
   0.18156    -14.251347
   0.19291    -14.244172
   0.20425    -14.236911
   0.21560    -14.229653
   0.22695    -14.222503
   0.23830    -14.215558
   0.24964    -14.208949
   0.26099    -14.202811
   0.27234    -14.197282
   0.28369    -14.192504
   0.29503    -14.188617
   0.30638    -14.185742
   0.31773    -14.183976
   0.32908    -14.183379
   0.32908    -14.183379
   0.35954    -14.180937
   0.39001    -14.173619
   0.42047    -14.161445
   0.45094    -14.144454
   0.48140    -14.122699
   0.51187    -14.096240
   0.54233    -14.065168
   0.57280    -14.029580
   0.60326    -13.989596
   0.63373    -13.945365
   0.66419    -13.897052
   0.69466    -13.844853
   0.72513    -13.788990
   0.75559    -13.729732
   0.78606    -13.667381
   0.81652    -13.602275
   0.84699    -13.534815
   0.87745    -13.465448
   0.90792    -13.394697
   0.93838    -13.323180
   0.96885    -13.251600
   0.99931    -13.180797
   1.02978    -13.111795
   1.06024    -13.045892
   1.09071    -12.984773
   1.12117    -12.930754
   1.15164    -12.887063
   1.18210    -12.857907
   1.21257    -12.847544
   1.21257    -12.847544
   1.24373    -12.858301
   1.27489    -12.888798
   1.30605    -12.935025
   1.33722    -12.992859
   1.36838    -13.058968
   1.39954    -13.130834
   1.43070    -13.206534
   1.46186    -13.284548
   1.49302    -13.363643
   1.52419    -13.442821
   1.55535    -13.521224
   1.58651    -13.598137
   1.61767    -13.672953
   1.64883    -13.745151
   1.67999    -13.814273
   1.71116    -13.879923
   1.74232    -13.941779
   1.77348    -13.999569
   1.80464    -14.053033
   1.83580    -14.101960
   1.86696    -14.146160
   1.89813    -14.185494
   1.92929    -14.219821
   1.96045    -14.249043
   1.99161    -14.273068
   2.02277    -14.291829
   2.05393    -14.305265
   2.08510    -14.313334
   2.11626    -14.316019
   2.11626    -14.316019
   2.14672    -14.313427
   2.17719    -14.305633
   2.20765    -14.292650
   2.23812    -14.274509
   2.26858    -14.251260
   2.29905    -14.222950
   2.32951    -14.189649
   2.35998    -14.151430
   2.39044    -14.108395
   2.42091    -14.060650
   2.45137    -14.008334
   2.48184    -13.951607
   2.51230    -13.890675
   2.54277    -13.825745
   2.57324    -13.757075
   2.60370    -13.684979
   2.63417    -13.609843
   2.66463    -13.532129
   2.69510    -13.452398
   2.72556    -13.371348
   2.75603    -13.289877
   2.78649    -13.209143
   2.81696    -13.130658
   2.84742    -13.056421
   2.87789    -12.989009
   2.90835    -12.931555
   2.93882    -12.887467
   2.96928    -12.859735
   2.99975    -12.850280
 
# Band-Index    2
   2.99975    -12.850280
   2.96928    -12.859735
   2.93882    -12.887467
   2.90835    -12.931555
   2.87789    -12.989009
   2.84742    -13.056421
   2.81696    -13.130658
   2.78649    -13.209143
   2.75603    -13.289877
   2.72556    -13.371348
   2.69510    -13.452398
   2.66463    -13.532129
   2.63417    -13.609843
   2.60370    -13.684979
   2.57324    -13.757075
   2.54277    -13.825745
   2.51230    -13.890675
   2.48184    -13.951607
   2.45137    -14.008334
   2.42091    -14.060650
   2.39044    -14.108395
   2.35998    -14.151430
   2.32951    -14.189649
   2.29905    -14.222950
   2.26858    -14.251260
   2.23812    -14.274509
   2.20765    -14.292650
   2.17719    -14.305633
   2.14672    -14.313427
   2.11626    -14.316019
   2.11626    -14.316019
   2.08510    -14.313334
   2.05393    -14.305265
   2.02277    -14.291829
   1.99161    -14.273068
   1.96045    -14.249043
   1.92929    -14.219821
   1.89813    -14.185494
   1.86696    -14.146160
   1.83580    -14.101960
   1.80464    -14.053033
   1.77348    -13.999569
   1.74232    -13.941779
   1.71116    -13.879923
   1.67999    -13.814273
   1.64883    -13.745151
   1.61767    -13.672953
   1.58651    -13.598137
   1.55535    -13.521224
   1.52419    -13.442821
   1.49302    -13.363643
   1.46186    -13.284548
   1.43070    -13.206534
   1.39954    -13.130834
   1.36838    -13.058968
   1.33722    -12.992859
   1.30605    -12.935025
   1.27489    -12.888798
   1.24373    -12.858301
   1.21257    -12.847544
   1.21257    -12.847544
   1.18210    -12.857907
   1.15164    -12.887063
   1.12117    -12.930754
   1.09071    -12.984773
   1.06024    -13.045892
   1.02978    -13.111795
   0.99931    -13.180797
   0.96885    -13.251600
   0.93838    -13.323180
   0.90792    -13.394697
   0.87745    -13.465448
   0.84699    -13.534815
   0.81652    -13.602275
   0.78606    -13.667381
   0.75559    -13.729732
   0.72513    -13.788990
   0.69466    -13.844853
   0.66419    -13.897052
   0.63373    -13.945365
   0.60326    -13.989596
   0.57280    -14.029580
   0.54233    -14.065168
   0.51187    -14.096240
   0.48140    -14.122699
   0.45094    -14.144454
   0.42047    -14.161445
   0.39001    -14.173619
   0.35954    -14.180937
   0.32908    -14.183379
   0.32908    -14.183379
   0.31773    -14.183976
   0.30638    -14.185742
   0.29503    -14.188617
   0.28369    -14.192504
   0.27234    -14.197282
   0.26099    -14.202811
   0.24964    -14.208949
   0.23830    -14.215558
   0.22695    -14.222503
   0.21560    -14.229653
   0.20425    -14.236911
   0.19291    -14.244172
   0.18156    -14.251347
   0.17021    -14.258369
   0.15886    -14.265167
   0.14752    -14.271684
   0.13617    -14.277870
   0.12482    -14.283678
   0.11347    -14.289091
   0.10213    -14.294072
   0.09078    -14.298581
   0.07943    -14.302607
   0.06808    -14.306128
   0.05674    -14.309130
   0.04539    -14.311601
   0.03404    -14.313531
   0.02269    -14.314914
   0.01135    -14.315744
   0.00000    -14.316019
 
# Band-Index    3
   0.00000    -13.085566
   0.01135    -13.101688
   0.02269    -13.130449
   0.03404    -13.161339
   0.04539    -13.192608
   0.05674    -13.223782
   0.06808    -13.254662
   0.07943    -13.285140
   0.09078    -13.315136
   0.10213    -13.344588
   0.11347    -13.373438
   0.12482    -13.401633
   0.13617    -13.429116
   0.14752    -13.455829
   0.15886    -13.481709
   0.17021    -13.506697
   0.18156    -13.530712
   0.19291    -13.553682
   0.20425    -13.575511
   0.21560    -13.596105
   0.22695    -13.615357
   0.23830    -13.633143
   0.24964    -13.649334
   0.26099    -13.663791
   0.27234    -13.676367
   0.28369    -13.686914
   0.29503    -13.695295
   0.30638    -13.701384
   0.31773    -13.705087
   0.32908    -13.706327
   0.32908    -13.706327
   0.35954    -13.703874
   0.39001    -13.696531
   0.42047    -13.684316
   0.45094    -13.667262
   0.48140    -13.645413
   0.51187    -13.618832
   0.54233    -13.587587
   0.57280    -13.551768
   0.60326    -13.511484
   0.63373    -13.466864
   0.66419    -13.418060
   0.69466    -13.365256
   0.72513    -13.308665
   0.75559    -13.248546
   0.78606    -13.185202
   0.81652    -13.119005
   0.84699    -13.050423
   0.87745    -12.980038
   0.90792    -12.908596
   0.93838    -12.837090
   0.96885    -12.766846
   0.99931    -12.699675
   1.02978    -12.638090
   1.06024    -12.585460
   1.09071    -12.545637
   1.12117    -12.521299
   1.15164    -12.511188
   1.18210    -12.509653
   1.21257    -12.510114
   1.21257    -12.510114
   1.24373    -12.509508
   1.27489    -12.509496
   1.30605    -12.514010
   1.33722    -12.526450
   1.36838    -12.548219
   1.39954    -12.578664
   1.43070    -12.615923
   1.46186    -12.657835
   1.49302    -12.702446
   1.52419    -12.748165
   1.55535    -12.793731
   1.58651    -12.838187
   1.61767    -12.880778
   1.64883    -12.920908
   1.67999    -12.958111
   1.71116    -12.992019
   1.74232    -13.022341
   1.77348    -13.048852
   1.80464    -13.071381
   1.83580    -13.089794
   1.86696    -13.104006
   1.89813    -13.113972
   1.92929    -13.119686
   1.96045    -13.121196
   1.99161    -13.118617
   2.02277    -13.112205
   2.05393    -13.102580
   2.08510    -13.091607
   2.11626    -13.085566
   2.11626    -13.085566
   2.14672    -13.085696
   2.17719    -13.085401
   2.20765    -13.083480
   2.23812    -13.079127
   2.26858    -13.071968
   2.29905    -13.061873
   2.32951    -13.048856
   2.35998    -13.033010
   2.39044    -13.014478
   2.42091    -12.993446
   2.45137    -12.970134
   2.48184    -12.944789
   2.51230    -12.917692
   2.54277    -12.889141
   2.57324    -12.859446
   2.60370    -12.828942
   2.63417    -12.797971
   2.66463    -12.766868
   2.69510    -12.735964
   2.72556    -12.705553
   2.75603    -12.675872
   2.78649    -12.647079
   2.81696    -12.619198
   2.84742    -12.592136
   2.87789    -12.565705
   2.90835    -12.540008
   2.93882    -12.516252
   2.96928    -12.497976
   2.99975    -12.490818
 
# Band-Index    4
   2.99975    -12.490818
   2.96928    -12.497976
   2.93882    -12.516252
   2.90835    -12.540008
   2.87789    -12.565705
   2.84742    -12.592136
   2.81696    -12.619198
   2.78649    -12.647079
   2.75603    -12.675872
   2.72556    -12.705553
   2.69510    -12.735964
   2.66463    -12.766868
   2.63417    -12.797971
   2.60370    -12.828942
   2.57324    -12.859446
   2.54277    -12.889141
   2.51230    -12.917692
   2.48184    -12.944789
   2.45137    -12.970134
   2.42091    -12.993446
   2.39044    -13.014478
   2.35998    -13.033010
   2.32951    -13.048856
   2.29905    -13.061873
   2.26858    -13.071968
   2.23812    -13.079127
   2.20765    -13.083480
   2.17719    -13.085401
   2.14672    -13.085696
   2.11626    -13.085566
   2.11626    -13.085566
   2.08510    -13.091607
   2.05393    -13.102580
   2.02277    -13.112205
   1.99161    -13.118617
   1.96045    -13.121196
   1.92929    -13.119686
   1.89813    -13.113972
   1.86696    -13.104006
   1.83580    -13.089794
   1.80464    -13.071381
   1.77348    -13.048852
   1.74232    -13.022341
   1.71116    -12.992019
   1.67999    -12.958111
   1.64883    -12.920908
   1.61767    -12.880778
   1.58651    -12.838187
   1.55535    -12.793731
   1.52419    -12.748165
   1.49302    -12.702446
   1.46186    -12.657835
   1.43070    -12.615923
   1.39954    -12.578664
   1.36838    -12.548219
   1.33722    -12.526450
   1.30605    -12.514010
   1.27489    -12.509496
   1.24373    -12.509508
   1.21257    -12.510114
   1.21257    -12.510114
   1.18210    -12.509653
   1.15164    -12.511188
   1.12117    -12.521299
   1.09071    -12.545637
   1.06024    -12.585460
   1.02978    -12.638090
   0.99931    -12.699675
   0.96885    -12.766846
   0.93838    -12.837090
   0.90792    -12.908596
   0.87745    -12.980038
   0.84699    -13.050423
   0.81652    -13.119005
   0.78606    -13.185202
   0.75559    -13.248546
   0.72513    -13.308665
   0.69466    -13.365256
   0.66419    -13.418060
   0.63373    -13.466864
   0.60326    -13.511484
   0.57280    -13.551768
   0.54233    -13.587587
   0.51187    -13.618832
   0.48140    -13.645413
   0.45094    -13.667262
   0.42047    -13.684316
   0.39001    -13.696531
   0.35954    -13.703874
   0.32908    -13.706327
   0.32908    -13.706327
   0.31773    -13.705087
   0.30638    -13.701384
   0.29503    -13.695295
   0.28369    -13.686914
   0.27234    -13.676367
   0.26099    -13.663791
   0.24964    -13.649334
   0.23830    -13.633143
   0.22695    -13.615357
   0.21560    -13.596105
   0.20425    -13.575511
   0.19291    -13.553682
   0.18156    -13.530712
   0.17021    -13.506697
   0.15886    -13.481709
   0.14752    -13.455829
   0.13617    -13.429116
   0.12482    -13.401633
   0.11347    -13.373438
   0.10213    -13.344588
   0.09078    -13.315136
   0.07943    -13.285140
   0.06808    -13.254662
   0.05674    -13.223782
   0.04539    -13.192608
   0.03404    -13.161339
   0.02269    -13.130449
   0.01135    -13.101688
   0.00000    -13.085566
 
# Band-Index    5
   0.00000    -13.034197
   0.01135    -13.017853
   0.02269    -12.988427
   0.03404    -12.956432
   0.04539    -12.923643
   0.05674    -12.890545
   0.06808    -12.857359
   0.07943    -12.824222
   0.09078    -12.791238
   0.10213    -12.758513
   0.11347    -12.726144
   0.12482    -12.694229
   0.13617    -12.662873
   0.14752    -12.632189
   0.15886    -12.602296
   0.17021    -12.573320
   0.18156    -12.545392
   0.19291    -12.518652
   0.20425    -12.493246
   0.21560    -12.469326
   0.22695    -12.447049
   0.23830    -12.426569
   0.24964    -12.408047
   0.26099    -12.391629
   0.27234    -12.377459
   0.28369    -12.365666
   0.29503    -12.356364
   0.30638    -12.349651
   0.31773    -12.345594
   0.32908    -12.344237
   0.32908    -12.344237
   0.35954    -12.343370
   0.39001    -12.340791
   0.42047    -12.336547
   0.45094    -12.330717
   0.48140    -12.323413
   0.51187    -12.314778
   0.54233    -12.304987
   0.57280    -12.294252
   0.60326    -12.282817
   0.63373    -12.270953
   0.66419    -12.258978
   0.69466    -12.247225
   0.72513    -12.236056
   0.75559    -12.225854
   0.78606    -12.217007
   0.81652    -12.209906
   0.84699    -12.204919
   0.87745    -12.202362
   0.90792    -12.202446
   0.93838    -12.205230
   0.96885    -12.210502
   0.99931    -12.217644
   1.02978    -12.225414
   1.06024    -12.231772
   1.09071    -12.234083
   1.12117    -12.230589
   1.15164    -12.222666
   1.18210    -12.214811
   1.21257    -12.211589
   1.21257    -12.211589
   1.24373    -12.214054
   1.27489    -12.220850
   1.30605    -12.230454
   1.33722    -12.241290
   1.36838    -12.252582
   1.39954    -12.264666
   1.43070    -12.278545
   1.46186    -12.295263
   1.49302    -12.315566
   1.52419    -12.339816
   1.55535    -12.368072
   1.58651    -12.400160
   1.61767    -12.435737
   1.64883    -12.474341
   1.67999    -12.515450
   1.71116    -12.558499
   1.74232    -12.602902
   1.77348    -12.648081
   1.80464    -12.693459
   1.83580    -12.738484
   1.86696    -12.782631
   1.89813    -12.825409
   1.92929    -12.866350
   1.96045    -12.905003
   1.99161    -12.940904
   2.02277    -12.973516
   2.05393    -13.002007
   2.08510    -13.024355
   2.11626    -13.034197
   2.11626    -13.034197
   2.14672    -13.030340
   2.17719    -13.019472
   2.20765    -13.002853
   2.23812    -12.981398
   2.26858    -12.955650
   2.29905    -12.925935
   2.32951    -12.892506
   2.35998    -12.855590
   2.39044    -12.815412
   2.42091    -12.772233
   2.45137    -12.726348
   2.48184    -12.678113
   2.51230    -12.627959
   2.54277    -12.576396
   2.57324    -12.524048
   2.60370    -12.471662
   2.63417    -12.420152
   2.66463    -12.370605
   2.69510    -12.324297
   2.72556    -12.282684
   2.75603    -12.247370
   2.78649    -12.219988
   2.81696    -12.201969
   2.84742    -12.194204
   2.87789    -12.196590
   2.90835    -12.207555
   2.93882    -12.223474
   2.96928    -12.238248
   2.99975    -12.244442
 
# Band-Index    6
   2.99975    -12.244442
   2.96928    -12.238248
   2.93882    -12.223474
   2.90835    -12.207555
   2.87789    -12.196590
   2.84742    -12.194204
   2.81696    -12.201969
   2.78649    -12.219988
   2.75603    -12.247370
   2.72556    -12.282684
   2.69510    -12.324297
   2.66463    -12.370605
   2.63417    -12.420152
   2.60370    -12.471662
   2.57324    -12.524048
   2.54277    -12.576396
   2.51230    -12.627959
   2.48184    -12.678113
   2.45137    -12.726348
   2.42091    -12.772233
   2.39044    -12.815412
   2.35998    -12.855590
   2.32951    -12.892506
   2.29905    -12.925935
   2.26858    -12.955650
   2.23812    -12.981398
   2.20765    -13.002853
   2.17719    -13.019472
   2.14672    -13.030340
   2.11626    -13.034197
   2.11626    -13.034197
   2.08510    -13.024355
   2.05393    -13.002007
   2.02277    -12.973516
   1.99161    -12.940904
   1.96045    -12.905003
   1.92929    -12.866350
   1.89813    -12.825409
   1.86696    -12.782631
   1.83580    -12.738484
   1.80464    -12.693459
   1.77348    -12.648081
   1.74232    -12.602902
   1.71116    -12.558499
   1.67999    -12.515450
   1.64883    -12.474341
   1.61767    -12.435737
   1.58651    -12.400160
   1.55535    -12.368072
   1.52419    -12.339816
   1.49302    -12.315566
   1.46186    -12.295263
   1.43070    -12.278545
   1.39954    -12.264666
   1.36838    -12.252582
   1.33722    -12.241290
   1.30605    -12.230454
   1.27489    -12.220850
   1.24373    -12.214054
   1.21257    -12.211589
   1.21257    -12.211589
   1.18210    -12.214811
   1.15164    -12.222666
   1.12117    -12.230589
   1.09071    -12.234083
   1.06024    -12.231772
   1.02978    -12.225414
   0.99931    -12.217644
   0.96885    -12.210502
   0.93838    -12.205230
   0.90792    -12.202446
   0.87745    -12.202362
   0.84699    -12.204919
   0.81652    -12.209906
   0.78606    -12.217007
   0.75559    -12.225854
   0.72513    -12.236056
   0.69466    -12.247225
   0.66419    -12.258978
   0.63373    -12.270953
   0.60326    -12.282817
   0.57280    -12.294252
   0.54233    -12.304987
   0.51187    -12.314778
   0.48140    -12.323413
   0.45094    -12.330717
   0.42047    -12.336547
   0.39001    -12.340791
   0.35954    -12.343370
   0.32908    -12.344237
   0.32908    -12.344237
   0.31773    -12.345594
   0.30638    -12.349651
   0.29503    -12.356364
   0.28369    -12.365666
   0.27234    -12.377459
   0.26099    -12.391629
   0.24964    -12.408047
   0.23830    -12.426569
   0.22695    -12.447049
   0.21560    -12.469326
   0.20425    -12.493246
   0.19291    -12.518652
   0.18156    -12.545392
   0.17021    -12.573320
   0.15886    -12.602296
   0.14752    -12.632189
   0.13617    -12.662873
   0.12482    -12.694229
   0.11347    -12.726144
   0.10213    -12.758513
   0.09078    -12.791238
   0.07943    -12.824222
   0.06808    -12.857359
   0.05674    -12.890545
   0.04539    -12.923643
   0.03404    -12.956432
   0.02269    -12.988427
   0.01135    -13.017853
   0.00000    -13.034197
 
# Band-Index    7
   0.00000     -9.725215
   0.01135     -9.727721
   0.02269     -9.735135
   0.03404     -9.747159
   0.04539     -9.763351
   0.05674     -9.783182
   0.06808     -9.806088
   0.07943     -9.831519
   0.09078     -9.858947
   0.10213     -9.887909
   0.11347     -9.917972
   0.12482     -9.948749
   0.13617     -9.979891
   0.14752    -10.011086
   0.15886    -10.042043
   0.17021    -10.072495
   0.18156    -10.102186
   0.19291    -10.130875
   0.20425    -10.158328
   0.21560    -10.184319
   0.22695    -10.208634
   0.23830    -10.231060
   0.24964    -10.251400
   0.26099    -10.269463
   0.27234    -10.285076
   0.28369    -10.298080
   0.29503    -10.308343
   0.30638    -10.315755
   0.31773    -10.320233
   0.32908    -10.321733
   0.32908    -10.321733
   0.35954    -10.320804
   0.39001    -10.318034
   0.42047    -10.313475
   0.45094    -10.307220
   0.48140    -10.299391
   0.51187    -10.290153
   0.54233    -10.279697
   0.57280    -10.268258
   0.60326    -10.256107
   0.63373    -10.243550
   0.66419    -10.230938
   0.69466    -10.218662
   0.72513    -10.207164
   0.75559    -10.196961
   0.78606    -10.188677
   0.81652    -10.183128
   0.84699    -10.181495
   0.87745    -10.185622
   0.90792    -10.198512
   0.93838    -10.224623
   0.96885    -10.268246
   0.99931    -10.329062
   1.02978    -10.400713
   1.06024    -10.475112
   1.09071    -10.545511
   1.12117    -10.606591
   1.15164    -10.653958
   1.18210    -10.684025
   1.21257    -10.694342
   1.21257    -10.694342
   1.24373    -10.686015
   1.27489    -10.661557
   1.30605    -10.622419
   1.33722    -10.570774
   1.36838    -10.509257
   1.39954    -10.440798
   1.43070    -10.368589
   1.46186    -10.296097
   1.49302    -10.226968
   1.52419    -10.164527
   1.55535    -10.110839
   1.58651    -10.066030
   1.61767    -10.028655
   1.64883     -9.996736
   1.67999     -9.968501
   1.71116     -9.942630
   1.74232     -9.918225
   1.77348     -9.894737
   1.80464     -9.871892
   1.83580     -9.849626
   1.86696     -9.828046
   1.89813     -9.807400
   1.92929     -9.788050
   1.96045     -9.770440
   1.99161     -9.755064
   2.02277     -9.742430
   2.05393     -9.733009
   2.08510     -9.727185
   2.11626     -9.725215
   2.11626     -9.725215
   2.14672     -9.726357
   2.17719     -9.729809
   2.20765     -9.735650
   2.23812     -9.744011
   2.26858     -9.755082
   2.29905     -9.769087
   2.32951     -9.786292
   2.35998     -9.806994
   2.39044     -9.831504
   2.42091     -9.860129
   2.45137     -9.893140
   2.48184     -9.930737
   2.51230     -9.973002
   2.54277    -10.019849
   2.57324    -10.070965
   2.60370    -10.125769
   2.63417    -10.183385
   2.66463    -10.242602
   2.69510    -10.301868
   2.72556    -10.359357
   2.75603    -10.413034
   2.78649    -10.460821
   2.81696    -10.500810
   2.84742    -10.531604
   2.87789    -10.552711
   2.90835    -10.564860
   2.93882    -10.570064
   2.96928    -10.571262
   2.99975    -10.571262
 
# Band-Index    8
   2.99975    -10.571262
   2.96928    -10.571262
   2.93882    -10.570064
   2.90835    -10.564860
   2.87789    -10.552711
   2.84742    -10.531604
   2.81696    -10.500810
   2.78649    -10.460821
   2.75603    -10.413034
   2.72556    -10.359357
   2.69510    -10.301868
   2.66463    -10.242602
   2.63417    -10.183385
   2.60370    -10.125769
   2.57324    -10.070965
   2.54277    -10.019849
   2.51230     -9.973002
   2.48184     -9.930737
   2.45137     -9.893140
   2.42091     -9.860129
   2.39044     -9.831504
   2.35998     -9.806994
   2.32951     -9.786292
   2.29905     -9.769087
   2.26858     -9.755082
   2.23812     -9.744011
   2.20765     -9.735650
   2.17719     -9.729809
   2.14672     -9.726357
   2.11626     -9.725215
   2.11626     -9.725215
   2.08510     -9.727185
   2.05393     -9.733009
   2.02277     -9.742430
   1.99161     -9.755064
   1.96045     -9.770440
   1.92929     -9.788050
   1.89813     -9.807400
   1.86696     -9.828046
   1.83580     -9.849626
   1.80464     -9.871892
   1.77348     -9.894737
   1.74232     -9.918225
   1.71116     -9.942630
   1.67999     -9.968501
   1.64883     -9.996736
   1.61767    -10.028655
   1.58651    -10.066030
   1.55535    -10.110839
   1.52419    -10.164527
   1.49302    -10.226968
   1.46186    -10.296097
   1.43070    -10.368589
   1.39954    -10.440798
   1.36838    -10.509257
   1.33722    -10.570774
   1.30605    -10.622419
   1.27489    -10.661557
   1.24373    -10.686015
   1.21257    -10.694342
   1.21257    -10.694342
   1.18210    -10.684025
   1.15164    -10.653958
   1.12117    -10.606591
   1.09071    -10.545511
   1.06024    -10.475112
   1.02978    -10.400713
   0.99931    -10.329062
   0.96885    -10.268246
   0.93838    -10.224623
   0.90792    -10.198512
   0.87745    -10.185622
   0.84699    -10.181495
   0.81652    -10.183128
   0.78606    -10.188677
   0.75559    -10.196961
   0.72513    -10.207164
   0.69466    -10.218662
   0.66419    -10.230938
   0.63373    -10.243550
   0.60326    -10.256107
   0.57280    -10.268258
   0.54233    -10.279697
   0.51187    -10.290153
   0.48140    -10.299391
   0.45094    -10.307220
   0.42047    -10.313475
   0.39001    -10.318034
   0.35954    -10.320804
   0.32908    -10.321733
   0.32908    -10.321733
   0.31773    -10.320233
   0.30638    -10.315755
   0.29503    -10.308343
   0.28369    -10.298080
   0.27234    -10.285076
   0.26099    -10.269463
   0.24964    -10.251400
   0.23830    -10.231060
   0.22695    -10.208634
   0.21560    -10.184319
   0.20425    -10.158328
   0.19291    -10.130875
   0.18156    -10.102186
   0.17021    -10.072495
   0.15886    -10.042043
   0.14752    -10.011086
   0.13617     -9.979891
   0.12482     -9.948749
   0.11347     -9.917972
   0.10213     -9.887909
   0.09078     -9.858947
   0.07943     -9.831519
   0.06808     -9.806088
   0.05674     -9.783182
   0.04539     -9.763351
   0.03404     -9.747159
   0.02269     -9.735135
   0.01135     -9.727721
   0.00000     -9.725215
 
# Band-Index    9
   0.00000     -8.958753
   0.01135     -8.956561
   0.02269     -8.950087
   0.03404     -8.939624
   0.04539     -8.925610
   0.05674     -8.908562
   0.06808     -8.889031
   0.07943     -8.867552
   0.09078     -8.844620
   0.10213     -8.820686
   0.11347     -8.796142
   0.12482     -8.771332
   0.13617     -8.746568
   0.14752     -8.722105
   0.15886     -8.698175
   0.17021     -8.674980
   0.18156     -8.652698
   0.19291     -8.631494
   0.20425     -8.611498
   0.21560     -8.592841
   0.22695     -8.575634
   0.23830     -8.559978
   0.24964     -8.545959
   0.26099     -8.533656
   0.27234     -8.523134
   0.28369     -8.514448
   0.29503     -8.507647
   0.30638     -8.502764
   0.31773     -8.499824
   0.32908     -8.498843
   0.32908     -8.498843
   0.35954     -8.503453
   0.39001     -8.517250
   0.42047     -8.540138
   0.45094     -8.571970
   0.48140     -8.612530
   0.51187     -8.661534
   0.54233     -8.718645
   0.57280     -8.783465
   0.60326     -8.855529
   0.63373     -8.934300
   0.66419     -9.019169
   0.69466     -9.109458
   0.72513     -9.204381
   0.75559     -9.303030
   0.78606     -9.404312
   0.81652     -9.506856
   0.84699     -9.608833
   0.87745     -9.707593
   0.90792     -9.799179
   0.93838     -9.877993
   0.96885     -9.938362
   0.99931     -9.978946
   1.02978    -10.004111
   1.06024    -10.019586
   1.09071    -10.029373
   1.12117    -10.035692
   1.15164    -10.039684
   1.18210    -10.041910
   1.21257    -10.042630
   1.21257    -10.042630
   1.24373    -10.040219
   1.27489    -10.033057
   1.30605    -10.021322
   1.33722    -10.005237
   1.36838     -9.984946
   1.39954     -9.960370
   1.43070     -9.931008
   1.46186     -9.895843
   1.49302     -9.853349
   1.52419     -9.802032
   1.55535     -9.741393
   1.58651     -9.672665
   1.61767     -9.598473
   1.64883     -9.521877
   1.67999     -9.445637
   1.71116     -9.372002
   1.74232     -9.302708
   1.77348     -9.239045
   1.80464     -9.181907
   1.83580     -9.131831
   1.86696     -9.089030
   1.89813     -9.053408
   1.92929     -9.024608
   1.96045     -9.002066
   1.99161     -8.985086
   2.02277     -8.972914
   2.05393     -8.964830
   2.08510     -8.960238
   2.11626     -8.958753
   2.11626     -8.958753
   2.14672     -8.960961
   2.17719     -8.967587
   2.20765     -8.978641
   2.23812     -8.994140
   2.26858     -9.014094
   2.29905     -9.038491
   2.32951     -9.067288
   2.35998     -9.100407
   2.39044     -9.137723
   2.42091     -9.179038
   2.45137     -9.224101
   2.48184     -9.272602
   2.51230     -9.324202
   2.54277     -9.378528
   2.57324     -9.435209
   2.60370     -9.493889
   2.63417     -9.554241
   2.66463     -9.615940
   2.69510     -9.678650
   2.72556     -9.741979
   2.75603     -9.805421
   2.78649     -9.868306
   2.81696     -9.929701
   2.84742     -9.988337
   2.87789    -10.042489
   2.90835    -10.089854
   2.93882    -10.127489
   2.96928    -10.152053
   2.99975    -10.160640
 
# Band-Index   10
   2.99975    -10.160640
   2.96928    -10.152053
   2.93882    -10.127489
   2.90835    -10.089854
   2.87789    -10.042489
   2.84742     -9.988337
   2.81696     -9.929701
   2.78649     -9.868306
   2.75603     -9.805421
   2.72556     -9.741979
   2.69510     -9.678650
   2.66463     -9.615940
   2.63417     -9.554241
   2.60370     -9.493889
   2.57324     -9.435209
   2.54277     -9.378528
   2.51230     -9.324202
   2.48184     -9.272602
   2.45137     -9.224101
   2.42091     -9.179038
   2.39044     -9.137723
   2.35998     -9.100407
   2.32951     -9.067288
   2.29905     -9.038491
   2.26858     -9.014094
   2.23812     -8.994140
   2.20765     -8.978641
   2.17719     -8.967587
   2.14672     -8.960961
   2.11626     -8.958753
   2.11626     -8.958753
   2.08510     -8.960238
   2.05393     -8.964830
   2.02277     -8.972914
   1.99161     -8.985086
   1.96045     -9.002066
   1.92929     -9.024608
   1.89813     -9.053408
   1.86696     -9.089030
   1.83580     -9.131831
   1.80464     -9.181907
   1.77348     -9.239045
   1.74232     -9.302708
   1.71116     -9.372002
   1.67999     -9.445637
   1.64883     -9.521877
   1.61767     -9.598473
   1.58651     -9.672665
   1.55535     -9.741393
   1.52419     -9.802032
   1.49302     -9.853349
   1.46186     -9.895843
   1.43070     -9.931008
   1.39954     -9.960370
   1.36838     -9.984946
   1.33722    -10.005237
   1.30605    -10.021322
   1.27489    -10.033057
   1.24373    -10.040219
   1.21257    -10.042630
   1.21257    -10.042630
   1.18210    -10.041910
   1.15164    -10.039684
   1.12117    -10.035692
   1.09071    -10.029373
   1.06024    -10.019586
   1.02978    -10.004111
   0.99931     -9.978946
   0.96885     -9.938362
   0.93838     -9.877993
   0.90792     -9.799179
   0.87745     -9.707593
   0.84699     -9.608833
   0.81652     -9.506856
   0.78606     -9.404312
   0.75559     -9.303030
   0.72513     -9.204381
   0.69466     -9.109458
   0.66419     -9.019169
   0.63373     -8.934300
   0.60326     -8.855529
   0.57280     -8.783465
   0.54233     -8.718645
   0.51187     -8.661534
   0.48140     -8.612530
   0.45094     -8.571970
   0.42047     -8.540138
   0.39001     -8.517250
   0.35954     -8.503453
   0.32908     -8.498843
   0.32908     -8.498843
   0.31773     -8.499824
   0.30638     -8.502764
   0.29503     -8.507647
   0.28369     -8.514448
   0.27234     -8.523134
   0.26099     -8.533656
   0.24964     -8.545959
   0.23830     -8.559978
   0.22695     -8.575634
   0.21560     -8.592841
   0.20425     -8.611498
   0.19291     -8.631494
   0.18156     -8.652698
   0.17021     -8.674980
   0.15886     -8.698175
   0.14752     -8.722105
   0.13617     -8.746568
   0.12482     -8.771332
   0.11347     -8.796142
   0.10213     -8.820686
   0.09078     -8.844620
   0.07943     -8.867552
   0.06808     -8.889031
   0.05674     -8.908562
   0.04539     -8.925610
   0.03404     -8.939624
   0.02269     -8.950087
   0.01135     -8.956561
   0.00000     -8.958753
 
# Band-Index   11
   0.00000     -2.651807
   0.01135     -2.655667
   0.02269     -2.666486
   0.03404     -2.682568
   0.04539     -2.702207
   0.05674     -2.724109
   0.06808     -2.747386
   0.07943     -2.771437
   0.09078     -2.795843
   0.10213     -2.820300
   0.11347     -2.844575
   0.12482     -2.868476
   0.13617     -2.891850
   0.14752     -2.914558
   0.15886     -2.936479
   0.17021     -2.957500
   0.18156     -2.977522
   0.19291     -2.996456
   0.20425     -3.014206
   0.21560     -3.030695
   0.22695     -3.045848
   0.23830     -3.059598
   0.24964     -3.071881
   0.26099     -3.082643
   0.27234     -3.091832
   0.28369     -3.099408
   0.29503     -3.105335
   0.30638     -3.109590
   0.31773     -3.112152
   0.32908     -3.113007
   0.32908     -3.113007
   0.35954     -3.111594
   0.39001     -3.107414
   0.42047     -3.100668
   0.45094     -3.091769
   0.48140     -3.081617
   0.51187     -3.072891
   0.54233     -3.083686
   0.57280     -3.215084
   0.60326     -3.406669
   0.63373     -3.598854
   0.66419     -3.784864
   0.69466     -3.962514
   0.72513     -4.130456
   0.75559     -4.287645
   0.78606     -4.433190
   0.81652     -4.566341
   0.84699     -4.686480
   0.87745     -4.793146
   0.90792     -4.886025
   0.93838     -4.965016
   0.96885     -5.030252
   0.99931     -5.082156
   1.02978     -5.121477
   1.06024     -5.149350
   1.09071     -5.167340
   1.12117     -5.177470
   1.15164     -5.182099
   1.18210     -5.183614
   1.21257     -5.183880
   1.21257     -5.183880
   1.24373     -5.191471
   1.27489     -5.210064
   1.30605     -5.230639
   1.33722     -5.244618
   1.36838     -5.245847
   1.39954     -5.230382
   1.43070     -5.195854
   1.46186     -5.140990
   1.49302     -5.065296
   1.52419     -4.968877
   1.55535     -4.852303
   1.58651     -4.716534
   1.61767     -4.562824
   1.64883     -4.392740
   1.67999     -4.208205
   1.71116     -4.011667
   1.74232     -3.806462
   1.77348     -3.597804
   1.80464     -3.394890
   1.83580     -3.224368
   1.86696     -3.156433
   1.89813     -3.096181
   1.92929     -3.027234
   1.96045     -2.950106
   1.99161     -2.868184
   2.02277     -2.787600
   2.05393     -2.717542
   2.08510     -2.669144
   2.11626     -2.651807
   2.11626     -2.651807
   2.14672     -2.667858
   2.17719     -2.712960
   2.20765     -2.780215
   2.23812     -2.862475
   2.26858     -2.953897
   2.29905     -3.050047
   2.32951     -3.147675
   2.35998     -3.244704
   2.39044     -3.340689
   2.42091     -3.438578
   2.45137     -3.548179
   2.48184     -3.680835
   2.51230     -3.833954
   2.54277     -3.998064
   2.57324     -4.165682
   2.60370     -4.331786
   2.63417     -4.493010
   2.66463     -4.646975
   2.69510     -4.791931
   2.72556     -4.926519
   2.75603     -5.049641
   2.78649     -5.160365
   2.81696     -5.257901
   2.84742     -5.341578
   2.87789     -5.410823
   2.90835     -5.465174
   2.93882     -5.504261
   2.96928     -5.527822
   2.99975     -5.535694
 
# Band-Index   12
   2.99975     -5.535694
   2.96928     -5.527822
   2.93882     -5.504261
   2.90835     -5.465174
   2.87789     -5.410823
   2.84742     -5.341578
   2.81696     -5.257901
   2.78649     -5.160365
   2.75603     -5.049641
   2.72556     -4.926519
   2.69510     -4.791931
   2.66463     -4.646975
   2.63417     -4.493010
   2.60370     -4.331786
   2.57324     -4.165682
   2.54277     -3.998064
   2.51230     -3.833954
   2.48184     -3.680835
   2.45137     -3.548179
   2.42091     -3.438578
   2.39044     -3.340689
   2.35998     -3.244704
   2.32951     -3.147675
   2.29905     -3.050047
   2.26858     -2.953897
   2.23812     -2.862475
   2.20765     -2.780215
   2.17719     -2.712960
   2.14672     -2.667858
   2.11626     -2.651807
   2.11626     -2.651807
   2.08510     -2.669144
   2.05393     -2.717542
   2.02277     -2.787600
   1.99161     -2.868184
   1.96045     -2.950106
   1.92929     -3.027234
   1.89813     -3.096181
   1.86696     -3.156433
   1.83580     -3.224368
   1.80464     -3.394890
   1.77348     -3.597804
   1.74232     -3.806462
   1.71116     -4.011667
   1.67999     -4.208205
   1.64883     -4.392740
   1.61767     -4.562824
   1.58651     -4.716534
   1.55535     -4.852303
   1.52419     -4.968877
   1.49302     -5.065296
   1.46186     -5.140990
   1.43070     -5.195854
   1.39954     -5.230382
   1.36838     -5.245847
   1.33722     -5.244618
   1.30605     -5.230639
   1.27489     -5.210064
   1.24373     -5.191471
   1.21257     -5.183880
   1.21257     -5.183880
   1.18210     -5.183614
   1.15164     -5.182099
   1.12117     -5.177470
   1.09071     -5.167340
   1.06024     -5.149350
   1.02978     -5.121477
   0.99931     -5.082156
   0.96885     -5.030252
   0.93838     -4.965016
   0.90792     -4.886025
   0.87745     -4.793146
   0.84699     -4.686480
   0.81652     -4.566341
   0.78606     -4.433190
   0.75559     -4.287645
   0.72513     -4.130456
   0.69466     -3.962514
   0.66419     -3.784864
   0.63373     -3.598854
   0.60326     -3.406669
   0.57280     -3.215084
   0.54233     -3.083686
   0.51187     -3.072891
   0.48140     -3.081617
   0.45094     -3.091769
   0.42047     -3.100668
   0.39001     -3.107414
   0.35954     -3.111594
   0.32908     -3.113007
   0.32908     -3.113007
   0.31773     -3.112152
   0.30638     -3.109590
   0.29503     -3.105335
   0.28369     -3.099408
   0.27234     -3.091832
   0.26099     -3.082643
   0.24964     -3.071881
   0.23830     -3.059598
   0.22695     -3.045848
   0.21560     -3.030695
   0.20425     -3.014206
   0.19291     -2.996456
   0.18156     -2.977522
   0.17021     -2.957500
   0.15886     -2.936479
   0.14752     -2.914558
   0.13617     -2.891850
   0.12482     -2.868476
   0.11347     -2.844575
   0.10213     -2.820300
   0.09078     -2.795843
   0.07943     -2.771437
   0.06808     -2.747386
   0.05674     -2.724109
   0.04539     -2.702207
   0.03404     -2.682568
   0.02269     -2.666486
   0.01135     -2.655667
   0.00000     -2.651807
 
# Band-Index   13
   0.00000     -2.444451
   0.01135     -2.440812
   0.02269     -2.430655
   0.03404     -2.415684
   0.04539     -2.397621
   0.05674     -2.377778
   0.06808     -2.357075
   0.07943     -2.336153
   0.09078     -2.315479
   0.10213     -2.295423
   0.11347     -2.276289
   0.12482     -2.258337
   0.13617     -2.241790
   0.14752     -2.226831
   0.15886     -2.213586
   0.17021     -2.202116
   0.18156     -2.192403
   0.19291     -2.184362
   0.20425     -2.177846
   0.21560     -2.172670
   0.22695     -2.168638
   0.23830     -2.165551
   0.24964     -2.163229
   0.26099     -2.161513
   0.27234     -2.160268
   0.28369     -2.159387
   0.29503     -2.158785
   0.30638     -2.158399
   0.31773     -2.158184
   0.32908     -2.158116
   0.32908     -2.158116
   0.35954     -2.163956
   0.39001     -2.183527
   0.42047     -2.230006
   0.45094     -2.366771
   0.48140     -2.563697
   0.51187     -2.767234
   0.54233     -2.951214
   0.57280     -3.012794
   0.60326     -3.013945
   0.63373     -3.022205
   0.66419     -3.062780
   0.69466     -3.142149
   0.72513     -3.239817
   0.75559     -3.342136
   0.78606     -3.443973
   0.81652     -3.543186
   0.84699     -3.638692
   0.87745     -3.729878
   0.90792     -3.816416
   0.93838     -3.898239
   0.96885     -3.975554
   0.99931     -4.048887
   1.02978     -4.118993
   1.06024     -4.186335
   1.09071     -4.250013
   1.12117     -4.306959
   1.15164     -4.352539
   1.18210     -4.382116
   1.21257     -4.392375
   1.21257     -4.392375
   1.24373     -4.369574
   1.27489     -4.308040
   1.30605     -4.228034
   1.33722     -4.158174
   1.36838     -4.106199
   1.39954     -4.060535
   1.43070     -4.014041
   1.46186     -3.964114
   1.49302     -3.909867
   1.52419     -3.851082
   1.55535     -3.787865
   1.58651     -3.720537
   1.61767     -3.649643
   1.64883     -3.576041
   1.67999     -3.501105
   1.71116     -3.427179
   1.74232     -3.358063
   1.77348     -3.298033
   1.80464     -3.246815
   1.83580     -3.184883
   1.86696     -3.046866
   1.89813     -2.922252
   1.92929     -2.816326
   1.96045     -2.722741
   1.99161     -2.638968
   2.02277     -2.565157
   2.05393     -2.503740
   2.08510     -2.460530
   2.11626     -2.444451
   2.11626     -2.444451
   2.14672     -2.462006
   2.17719     -2.511401
   2.20765     -2.584665
   2.23812     -2.673224
   2.26858     -2.770714
   2.29905     -2.873377
   2.32951     -2.979428
   2.35998     -3.088360
   2.39044     -3.200105
   2.42091     -3.312874
   2.45137     -3.418548
   2.48184     -3.505828
   2.51230     -3.574239
   2.54277     -3.628202
   2.57324     -3.670315
   2.60370     -3.702030
   2.63417     -3.724663
   2.66463     -3.739949
   2.69510     -3.750314
   2.72556     -3.758530
   2.75603     -3.766378
   2.78649     -3.773763
   2.81696     -3.779639
   2.84742     -3.783267
   2.87789     -3.784583
   2.90835     -3.784096
   2.93882     -3.782679
   2.96928     -3.781300
   2.99975     -3.780740
 
# Band-Index   14
   2.99975     -3.780740
   2.96928     -3.781300
   2.93882     -3.782679
   2.90835     -3.784096
   2.87789     -3.784583
   2.84742     -3.783267
   2.81696     -3.779639
   2.78649     -3.773763
   2.75603     -3.766378
   2.72556     -3.758530
   2.69510     -3.750314
   2.66463     -3.739949
   2.63417     -3.724663
   2.60370     -3.702030
   2.57324     -3.670315
   2.54277     -3.628202
   2.51230     -3.574239
   2.48184     -3.505828
   2.45137     -3.418548
   2.42091     -3.312874
   2.39044     -3.200105
   2.35998     -3.088360
   2.32951     -2.979428
   2.29905     -2.873377
   2.26858     -2.770714
   2.23812     -2.673224
   2.20765     -2.584665
   2.17719     -2.511401
   2.14672     -2.462006
   2.11626     -2.444451
   2.11626     -2.444451
   2.08510     -2.460530
   2.05393     -2.503740
   2.02277     -2.565157
   1.99161     -2.638968
   1.96045     -2.722741
   1.92929     -2.816326
   1.89813     -2.922252
   1.86696     -3.046866
   1.83580     -3.184883
   1.80464     -3.246815
   1.77348     -3.298033
   1.74232     -3.358063
   1.71116     -3.427179
   1.67999     -3.501105
   1.64883     -3.576041
   1.61767     -3.649643
   1.58651     -3.720537
   1.55535     -3.787865
   1.52419     -3.851082
   1.49302     -3.909867
   1.46186     -3.964114
   1.43070     -4.014041
   1.39954     -4.060535
   1.36838     -4.106199
   1.33722     -4.158174
   1.30605     -4.228034
   1.27489     -4.308040
   1.24373     -4.369574
   1.21257     -4.392375
   1.21257     -4.392375
   1.18210     -4.382116
   1.15164     -4.352539
   1.12117     -4.306959
   1.09071     -4.250013
   1.06024     -4.186335
   1.02978     -4.118993
   0.99931     -4.048887
   0.96885     -3.975554
   0.93838     -3.898239
   0.90792     -3.816416
   0.87745     -3.729878
   0.84699     -3.638692
   0.81652     -3.543186
   0.78606     -3.443973
   0.75559     -3.342136
   0.72513     -3.239817
   0.69466     -3.142149
   0.66419     -3.062780
   0.63373     -3.022205
   0.60326     -3.013945
   0.57280     -3.012794
   0.54233     -2.951214
   0.51187     -2.767234
   0.48140     -2.563697
   0.45094     -2.366771
   0.42047     -2.230006
   0.39001     -2.183527
   0.35954     -2.163956
   0.32908     -2.158116
   0.32908     -2.158116
   0.31773     -2.158184
   0.30638     -2.158399
   0.29503     -2.158785
   0.28369     -2.159387
   0.27234     -2.160268
   0.26099     -2.161513
   0.24964     -2.163229
   0.23830     -2.165551
   0.22695     -2.168638
   0.21560     -2.172670
   0.20425     -2.177846
   0.19291     -2.184362
   0.18156     -2.192403
   0.17021     -2.202116
   0.15886     -2.213586
   0.14752     -2.226831
   0.13617     -2.241790
   0.12482     -2.258337
   0.11347     -2.276289
   0.10213     -2.295423
   0.09078     -2.315479
   0.07943     -2.336153
   0.06808     -2.357075
   0.05674     -2.377778
   0.04539     -2.397621
   0.03404     -2.415684
   0.02269     -2.430655
   0.01135     -2.440812
   0.00000     -2.444451
 
# Band-Index   15
   0.00000     -1.887067
   0.01135     -1.887831
   0.02269     -1.890010
   0.03404     -1.893302
   0.04539     -1.897310
   0.05674     -1.901620
   0.06808     -1.905849
   0.07943     -1.909661
   0.09078     -1.912756
   0.10213     -1.914872
   0.11347     -1.915761
   0.12482     -1.915204
   0.13617     -1.913001
   0.14752     -1.908988
   0.15886     -1.903050
   0.17021     -1.895135
   0.18156     -1.885266
   0.19291     -1.873540
   0.20425     -1.860109
   0.21560     -1.845175
   0.22695     -1.828963
   0.23830     -1.811711
   0.24964     -1.793667
   0.26099     -1.775099
   0.27234     -1.756323
   0.28369     -1.750782
   0.29503     -1.751138
   0.30638     -1.751395
   0.31773     -1.751550
   0.32908     -1.751602
   0.32908     -1.751602
   0.35954     -1.812256
   0.39001     -1.954077
   0.42047     -2.120154
   0.45094     -2.230400
   0.48140     -2.307491
   0.51187     -2.396014
   0.54233     -2.496097
   0.57280     -2.602034
   0.60326     -2.706817
   0.63373     -2.799089
   0.66419     -2.858772
   0.69466     -2.881698
   0.72513     -2.892196
   0.75559     -2.910515
   0.78606     -2.949434
   0.81652     -3.014043
   0.84699     -3.103154
   0.87745     -3.213665
   0.90792     -3.339323
   0.93838     -3.471210
   0.96885     -3.601172
   0.99931     -3.722962
   1.02978     -3.831698
   1.06024     -3.923592
   1.09071     -3.996506
   1.12117     -4.050506
   1.15164     -4.087193
   1.18210     -4.108393
   1.21257     -4.115324
   1.21257     -4.115324
   1.24373     -4.108884
   1.27489     -4.086970
   1.30605     -4.038684
   1.33722     -3.944671
   1.36838     -3.804534
   1.39954     -3.635972
   1.43070     -3.453257
   1.46186     -3.275838
   1.49302     -3.151776
   1.52419     -3.080064
   1.55535     -3.020959
   1.58651     -2.966949
   1.61767     -2.931464
   1.64883     -2.946860
   1.67999     -2.983983
   1.71116     -3.010142
   1.74232     -3.012539
   1.77348     -2.981408
   1.80464     -2.909438
   1.83580     -2.792615
   1.86696     -2.631133
   1.89813     -2.439123
   1.92929     -2.246430
   1.96045     -2.101547
   1.99161     -2.014350
   2.02277     -1.951878
   2.05393     -1.909691
   2.08510     -1.891103
   2.11626     -1.887067
   2.11626     -1.887067
   2.14672     -1.891855
   2.17719     -1.919352
   2.20765     -1.972325
   2.23812     -2.037729
   2.26858     -2.112057
   2.29905     -2.200617
   2.32951     -2.321795
   2.35998     -2.482871
   2.39044     -2.658310
   2.42091     -2.828374
   2.45137     -2.982755
   2.48184     -3.116496
   2.51230     -3.229304
   2.54277     -3.323722
   2.57324     -3.402692
   2.60370     -3.468294
   2.63417     -3.521500
   2.66463     -3.562218
   2.69510     -3.589412
   2.72556     -3.601731
   2.75603     -3.599062
   2.78649     -3.583666
   2.81696     -3.559512
   2.84742     -3.531327
   2.87789     -3.504224
   2.90835     -3.482834
   2.93882     -3.469422
   2.96928     -3.463016
   2.99975     -3.461257
 
# Band-Index   16
   2.99975     -3.461257
   2.96928     -3.463016
   2.93882     -3.469422
   2.90835     -3.482834
   2.87789     -3.504224
   2.84742     -3.531327
   2.81696     -3.559512
   2.78649     -3.583666
   2.75603     -3.599062
   2.72556     -3.601731
   2.69510     -3.589412
   2.66463     -3.562218
   2.63417     -3.521500
   2.60370     -3.468294
   2.57324     -3.402692
   2.54277     -3.323722
   2.51230     -3.229304
   2.48184     -3.116496
   2.45137     -2.982755
   2.42091     -2.828374
   2.39044     -2.658310
   2.35998     -2.482871
   2.32951     -2.321795
   2.29905     -2.200617
   2.26858     -2.112057
   2.23812     -2.037729
   2.20765     -1.972325
   2.17719     -1.919352
   2.14672     -1.891855
   2.11626     -1.887067
   2.11626     -1.887067
   2.08510     -1.891103
   2.05393     -1.909691
   2.02277     -1.951878
   1.99161     -2.014350
   1.96045     -2.101547
   1.92929     -2.246430
   1.89813     -2.439123
   1.86696     -2.631133
   1.83580     -2.792615
   1.80464     -2.909438
   1.77348     -2.981408
   1.74232     -3.012539
   1.71116     -3.010142
   1.67999     -2.983983
   1.64883     -2.946860
   1.61767     -2.931464
   1.58651     -2.966949
   1.55535     -3.020959
   1.52419     -3.080064
   1.49302     -3.151776
   1.46186     -3.275838
   1.43070     -3.453257
   1.39954     -3.635972
   1.36838     -3.804534
   1.33722     -3.944671
   1.30605     -4.038684
   1.27489     -4.086970
   1.24373     -4.108884
   1.21257     -4.115324
   1.21257     -4.115324
   1.18210     -4.108393
   1.15164     -4.087193
   1.12117     -4.050506
   1.09071     -3.996506
   1.06024     -3.923592
   1.02978     -3.831698
   0.99931     -3.722962
   0.96885     -3.601172
   0.93838     -3.471210
   0.90792     -3.339323
   0.87745     -3.213665
   0.84699     -3.103154
   0.81652     -3.014043
   0.78606     -2.949434
   0.75559     -2.910515
   0.72513     -2.892196
   0.69466     -2.881698
   0.66419     -2.858772
   0.63373     -2.799089
   0.60326     -2.706817
   0.57280     -2.602034
   0.54233     -2.496097
   0.51187     -2.396014
   0.48140     -2.307491
   0.45094     -2.230400
   0.42047     -2.120154
   0.39001     -1.954077
   0.35954     -1.812256
   0.32908     -1.751602
   0.32908     -1.751602
   0.31773     -1.751550
   0.30638     -1.751395
   0.29503     -1.751138
   0.28369     -1.750782
   0.27234     -1.756323
   0.26099     -1.775099
   0.24964     -1.793667
   0.23830     -1.811711
   0.22695     -1.828963
   0.21560     -1.845175
   0.20425     -1.860109
   0.19291     -1.873540
   0.18156     -1.885266
   0.17021     -1.895135
   0.15886     -1.903050
   0.14752     -1.908988
   0.13617     -1.913001
   0.12482     -1.915204
   0.11347     -1.915761
   0.10213     -1.914872
   0.09078     -1.912756
   0.07943     -1.909661
   0.06808     -1.905849
   0.05674     -1.901620
   0.04539     -1.897310
   0.03404     -1.893302
   0.02269     -1.890010
   0.01135     -1.887831
   0.00000     -1.887067
 
# Band-Index   17
   0.00000     -1.731653
   0.01135     -1.731719
   0.02269     -1.731918
   0.03404     -1.732246
   0.04539     -1.732697
   0.05674     -1.733265
   0.06808     -1.733939
   0.07943     -1.734710
   0.09078     -1.735564
   0.10213     -1.736491
   0.11347     -1.737476
   0.12482     -1.738504
   0.13617     -1.739564
   0.14752     -1.740641
   0.15886     -1.741722
   0.17021     -1.742794
   0.18156     -1.743847
   0.19291     -1.744868
   0.20425     -1.745846
   0.21560     -1.746771
   0.22695     -1.747635
   0.23830     -1.748429
   0.24964     -1.749147
   0.26099     -1.749782
   0.27234     -1.750329
   0.28369     -1.737763
   0.29503     -1.720089
   0.30638     -1.704472
   0.31773     -1.693004
   0.32908     -1.688625
   0.32908     -1.688625
   0.35954     -1.694452
   0.39001     -1.711115
   0.42047     -1.756624
   0.45094     -1.830097
   0.48140     -1.903822
   0.51187     -1.975131
   0.54233     -2.050785
   0.57280     -2.134075
   0.60326     -2.222579
   0.63373     -2.312645
   0.66419     -2.401253
   0.69466     -2.485667
   0.72513     -2.562701
   0.75559     -2.628685
   0.78606     -2.683613
   0.81652     -2.740382
   0.84699     -2.815759
   0.87745     -2.901485
   0.90792     -2.981253
   0.93838     -3.050223
   0.96885     -3.109212
   0.99931     -3.159647
   1.02978     -3.202490
   1.06024     -3.238296
   1.09071     -3.267367
   1.12117     -3.289874
   1.15164     -3.305906
   1.18210     -3.315511
   1.21257     -3.318710
   1.21257     -3.318710
   1.24373     -3.315791
   1.27489     -3.307024
   1.30605     -3.292376
   1.33722     -3.271750
   1.36838     -3.244880
   1.39954     -3.210998
   1.43070     -3.167437
   1.46186     -3.101947
   1.49302     -2.974026
   1.52419     -2.803630
   1.55535     -2.721117
   1.58651     -2.761124
   1.61767     -2.801027
   1.64883     -2.781659
   1.67999     -2.724208
   1.71116     -2.655689
   1.74232     -2.582379
   1.77348     -2.506210
   1.80464     -2.428176
   1.83580     -2.348936
   1.86696     -2.268811
   1.89813     -2.187103
   1.92929     -2.098448
   1.96045     -1.986351
   1.99161     -1.885598
   2.02277     -1.840386
   2.05393     -1.815352
   2.08510     -1.778670
   2.11626     -1.731653
   2.11626     -1.731653
   2.14672     -1.776380
   2.17719     -1.794831
   2.20765     -1.788622
   2.23812     -1.801896
   2.26858     -1.884882
   2.29905     -2.021926
   2.32951     -2.155005
   2.35998     -2.255617
   2.39044     -2.337725
   2.42091     -2.412493
   2.45137     -2.483319
   2.48184     -2.551152
   2.51230     -2.616207
   2.54277     -2.678445
   2.57324     -2.737743
   2.60370     -2.793956
   2.63417     -2.846948
   2.66463     -2.896584
   2.69510     -2.942734
   2.72556     -2.985226
   2.75603     -3.023760
   2.78649     -3.057752
   2.81696     -3.086071
   2.84742     -3.106833
   2.87789     -3.117745
   2.90835     -3.118027
   2.93882     -3.111622
   2.96928     -3.105969
   2.99975     -3.104219
 
# Band-Index   18
   2.99975     -3.104219
   2.96928     -3.105969
   2.93882     -3.111622
   2.90835     -3.118027
   2.87789     -3.117745
   2.84742     -3.106833
   2.81696     -3.086071
   2.78649     -3.057752
   2.75603     -3.023760
   2.72556     -2.985226
   2.69510     -2.942734
   2.66463     -2.896584
   2.63417     -2.846948
   2.60370     -2.793956
   2.57324     -2.737743
   2.54277     -2.678445
   2.51230     -2.616207
   2.48184     -2.551152
   2.45137     -2.483319
   2.42091     -2.412493
   2.39044     -2.337725
   2.35998     -2.255617
   2.32951     -2.155005
   2.29905     -2.021926
   2.26858     -1.884882
   2.23812     -1.801896
   2.20765     -1.788622
   2.17719     -1.794831
   2.14672     -1.776380
   2.11626     -1.731653
   2.11626     -1.731653
   2.08510     -1.778670
   2.05393     -1.815352
   2.02277     -1.840386
   1.99161     -1.885598
   1.96045     -1.986351
   1.92929     -2.098448
   1.89813     -2.187103
   1.86696     -2.268811
   1.83580     -2.348936
   1.80464     -2.428176
   1.77348     -2.506210
   1.74232     -2.582379
   1.71116     -2.655689
   1.67999     -2.724208
   1.64883     -2.781659
   1.61767     -2.801027
   1.58651     -2.761124
   1.55535     -2.721117
   1.52419     -2.803630
   1.49302     -2.974026
   1.46186     -3.101947
   1.43070     -3.167437
   1.39954     -3.210998
   1.36838     -3.244880
   1.33722     -3.271750
   1.30605     -3.292376
   1.27489     -3.307024
   1.24373     -3.315791
   1.21257     -3.318710
   1.21257     -3.318710
   1.18210     -3.315511
   1.15164     -3.305906
   1.12117     -3.289874
   1.09071     -3.267367
   1.06024     -3.238296
   1.02978     -3.202490
   0.99931     -3.159647
   0.96885     -3.109212
   0.93838     -3.050223
   0.90792     -2.981253
   0.87745     -2.901485
   0.84699     -2.815759
   0.81652     -2.740382
   0.78606     -2.683613
   0.75559     -2.628685
   0.72513     -2.562701
   0.69466     -2.485667
   0.66419     -2.401253
   0.63373     -2.312645
   0.60326     -2.222579
   0.57280     -2.134075
   0.54233     -2.050785
   0.51187     -1.975131
   0.48140     -1.903822
   0.45094     -1.830097
   0.42047     -1.756624
   0.39001     -1.711115
   0.35954     -1.694452
   0.32908     -1.688625
   0.32908     -1.688625
   0.31773     -1.693004
   0.30638     -1.704472
   0.29503     -1.720089
   0.28369     -1.737763
   0.27234     -1.750329
   0.26099     -1.749782
   0.24964     -1.749147
   0.23830     -1.748429
   0.22695     -1.747635
   0.21560     -1.746771
   0.20425     -1.745846
   0.19291     -1.744868
   0.18156     -1.743847
   0.17021     -1.742794
   0.15886     -1.741722
   0.14752     -1.740641
   0.13617     -1.739564
   0.12482     -1.738504
   0.11347     -1.737476
   0.10213     -1.736491
   0.09078     -1.735564
   0.07943     -1.734710
   0.06808     -1.733939
   0.05674     -1.733265
   0.04539     -1.732697
   0.03404     -1.732246
   0.02269     -1.731918
   0.01135     -1.731719
   0.00000     -1.731653
 
# Band-Index   19
   0.00000     -1.715935
   0.01135     -1.714269
   0.02269     -1.709379
   0.03404     -1.701557
   0.04539     -1.691187
   0.05674     -1.678661
   0.06808     -1.664332
   0.07943     -1.648502
   0.09078     -1.631419
   0.10213     -1.613301
   0.11347     -1.594338
   0.12482     -1.574710
   0.13617     -1.554597
   0.14752     -1.534198
   0.15886     -1.513748
   0.17021     -1.493561
   0.18156     -1.474105
   0.19291     -1.456202
   0.20425     -1.441474
   0.21560     -1.433098
   0.22695     -1.434855
   0.23830     -1.446266
   0.24964     -1.463180
   0.26099     -1.482501
   0.27234     -1.502631
   0.28369     -1.522596
   0.29503     -1.541490
   0.30638     -1.558027
   0.31773     -1.570064
   0.32908     -1.574634
   0.32908     -1.574634
   0.35954     -1.594964
   0.39001     -1.649653
   0.42047     -1.703628
   0.45094     -1.743701
   0.48140     -1.790428
   0.51187     -1.841912
   0.54233     -1.887995
   0.57280     -1.923855
   0.60326     -1.951782
   0.63373     -1.976231
   0.66419     -2.002564
   0.69466     -2.039937
   0.72513     -2.106221
   0.75559     -2.214621
   0.78606     -2.341659
   0.81652     -2.447809
   0.84699     -2.506336
   0.87745     -2.523415
   0.90792     -2.518551
   0.93838     -2.503122
   0.96885     -2.482153
   0.99931     -2.457948
   1.02978     -2.431704
   1.06024     -2.404208
   1.09071     -2.376227
   1.12117     -2.348894
   1.15164     -2.324246
   1.18210     -2.305922
   1.21257     -2.298901
   1.21257     -2.298901
   1.24373     -2.298302
   1.27489     -2.296823
   1.30605     -2.295490
   1.33722     -2.296351
   1.36838     -2.302870
   1.39954     -2.319999
   1.43070     -2.352832
   1.46186     -2.403300
   1.49302     -2.466462
   1.52419     -2.522161
   1.55535     -2.478796
   1.58651     -2.311913
   1.61767     -2.138725
   1.64883     -1.995426
   1.67999     -1.889172
   1.71116     -1.813077
   1.74232     -1.759587
   1.77348     -1.723637
   1.80464     -1.700716
   1.83580     -1.687046
   1.86696     -1.679690
   1.89813     -1.675554
   1.92929     -1.669199
   1.96045     -1.647957
   1.99161     -1.595049
   2.02277     -1.556819
   2.05393     -1.588288
   2.08510     -1.655093
   2.11626     -1.715935
   2.11626     -1.715935
   2.14672     -1.656216
   2.17719     -1.590184
   2.20765     -1.546965
   2.23812     -1.547516
   2.26858     -1.549382
   2.29905     -1.521387
   2.32951     -1.489373
   2.35998     -1.556256
   2.39044     -1.657407
   2.42091     -1.764292
   2.45137     -1.872836
   2.48184     -1.981044
   2.51230     -2.087671
   2.54277     -2.191825
   2.57324     -2.292811
   2.60370     -2.390024
   2.63417     -2.482890
   2.66463     -2.570818
   2.69510     -2.653167
   2.72556     -2.729215
   2.75603     -2.798143
   2.78649     -2.859072
   2.81696     -2.911130
   2.84742     -2.953534
   2.87789     -2.985520
   2.90835     -3.005977
   2.93882     -3.013384
   2.96928     -3.009680
   2.99975     -3.005761
 
# Band-Index   20
   2.99975     -3.005761
   2.96928     -3.009680
   2.93882     -3.013384
   2.90835     -3.005977
   2.87789     -2.985520
   2.84742     -2.953534
   2.81696     -2.911130
   2.78649     -2.859072
   2.75603     -2.798143
   2.72556     -2.729215
   2.69510     -2.653167
   2.66463     -2.570818
   2.63417     -2.482890
   2.60370     -2.390024
   2.57324     -2.292811
   2.54277     -2.191825
   2.51230     -2.087671
   2.48184     -1.981044
   2.45137     -1.872836
   2.42091     -1.764292
   2.39044     -1.657407
   2.35998     -1.556256
   2.32951     -1.489373
   2.29905     -1.521387
   2.26858     -1.549382
   2.23812     -1.547516
   2.20765     -1.546965
   2.17719     -1.590184
   2.14672     -1.656216
   2.11626     -1.715935
   2.11626     -1.715935
   2.08510     -1.655093
   2.05393     -1.588288
   2.02277     -1.556819
   1.99161     -1.595049
   1.96045     -1.647957
   1.92929     -1.669199
   1.89813     -1.675554
   1.86696     -1.679690
   1.83580     -1.687046
   1.80464     -1.700716
   1.77348     -1.723637
   1.74232     -1.759587
   1.71116     -1.813077
   1.67999     -1.889172
   1.64883     -1.995426
   1.61767     -2.138725
   1.58651     -2.311913
   1.55535     -2.478796
   1.52419     -2.522161
   1.49302     -2.466462
   1.46186     -2.403300
   1.43070     -2.352832
   1.39954     -2.319999
   1.36838     -2.302870
   1.33722     -2.296351
   1.30605     -2.295490
   1.27489     -2.296823
   1.24373     -2.298302
   1.21257     -2.298901
   1.21257     -2.298901
   1.18210     -2.305922
   1.15164     -2.324246
   1.12117     -2.348894
   1.09071     -2.376227
   1.06024     -2.404208
   1.02978     -2.431704
   0.99931     -2.457948
   0.96885     -2.482153
   0.93838     -2.503122
   0.90792     -2.518551
   0.87745     -2.523415
   0.84699     -2.506336
   0.81652     -2.447809
   0.78606     -2.341659
   0.75559     -2.214621
   0.72513     -2.106221
   0.69466     -2.039937
   0.66419     -2.002564
   0.63373     -1.976231
   0.60326     -1.951782
   0.57280     -1.923855
   0.54233     -1.887995
   0.51187     -1.841912
   0.48140     -1.790428
   0.45094     -1.743701
   0.42047     -1.703628
   0.39001     -1.649653
   0.35954     -1.594964
   0.32908     -1.574634
   0.32908     -1.574634
   0.31773     -1.570064
   0.30638     -1.558027
   0.29503     -1.541490
   0.28369     -1.522596
   0.27234     -1.502631
   0.26099     -1.482501
   0.24964     -1.463180
   0.23830     -1.446266
   0.22695     -1.434855
   0.21560     -1.433098
   0.20425     -1.441474
   0.19291     -1.456202
   0.18156     -1.474105
   0.17021     -1.493561
   0.15886     -1.513748
   0.14752     -1.534198
   0.13617     -1.554597
   0.12482     -1.574710
   0.11347     -1.594338
   0.10213     -1.613301
   0.09078     -1.631419
   0.07943     -1.648502
   0.06808     -1.664332
   0.05674     -1.678661
   0.04539     -1.691187
   0.03404     -1.701557
   0.02269     -1.709379
   0.01135     -1.714269
   0.00000     -1.715935
 
# Band-Index   21
   0.00000     -1.372793
   0.01135     -1.372544
   0.02269     -1.371799
   0.03404     -1.370564
   0.04539     -1.368852
   0.05674     -1.366679
   0.06808     -1.364062
   0.07943     -1.361026
   0.09078     -1.357598
   0.10213     -1.353810
   0.11347     -1.349696
   0.12482     -1.345294
   0.13617     -1.340645
   0.14752     -1.335793
   0.15886     -1.330788
   0.17021     -1.325680
   0.18156     -1.320523
   0.19291     -1.315376
   0.20425     -1.331626
   0.21560     -1.342612
   0.22695     -1.344211
   0.23830     -1.337029
   0.24964     -1.325356
   0.26099     -1.312410
   0.27234     -1.299869
   0.28369     -1.288655
   0.29503     -1.279823
   0.30638     -1.278194
   0.31773     -1.277203
   0.32908     -1.276871
   0.32908     -1.276871
   0.35954     -1.296143
   0.39001     -1.352128
   0.42047     -1.419238
   0.45094     -1.482190
   0.48140     -1.531777
   0.51187     -1.566249
   0.54233     -1.589310
   0.57280     -1.605101
   0.60326     -1.616408
   0.63373     -1.625594
   0.66419     -1.638689
   0.69466     -1.689473
   0.72513     -1.794142
   0.75559     -1.868449
   0.78606     -1.905525
   0.81652     -1.923899
   0.84699     -1.933268
   0.87745     -1.937504
   0.90792     -1.938305
   0.93838     -1.936648
   0.96885     -1.933489
   0.99931     -1.930509
   1.02978     -1.931558
   1.06024     -1.944018
   1.09071     -1.971497
   1.12117     -2.006105
   1.15164     -2.038773
   1.18210     -2.062692
   1.21257     -2.071683
   1.21257     -2.071683
   1.24373     -2.070880
   1.27489     -2.068525
   1.30605     -2.064731
   1.33722     -2.059516
   1.36838     -2.052490
   1.39954     -2.042465
   1.43070     -2.027477
   1.46186     -2.005601
   1.49302     -1.975796
   1.52419     -1.937860
   1.55535     -1.891946
   1.58651     -1.838698
   1.61767     -1.781043
   1.64883     -1.725967
   1.67999     -1.677786
   1.71116     -1.632612
   1.74232     -1.585144
   1.77348     -1.534284
   1.80464     -1.484022
   1.83580     -1.441117
   1.86696     -1.411044
   1.89813     -1.394461
   1.92929     -1.388632
   1.96045     -1.389211
   1.99161     -1.385304
   2.02277     -1.353190
   2.05393     -1.341901
   2.08510     -1.363511
   2.11626     -1.372793
   2.11626     -1.372793
   2.14672     -1.363737
   2.17719     -1.341832
   2.20765     -1.333009
   2.23812     -1.348409
   2.26858     -1.358452
   2.29905     -1.389666
   2.32951     -1.446816
   2.35998     -1.425518
   2.39044     -1.384642
   2.42091     -1.393605
   2.45137     -1.487289
   2.48184     -1.592274
   2.51230     -1.698179
   2.54277     -1.801802
   2.57324     -1.901494
   2.60370     -1.996262
   2.63417     -2.085450
   2.66463     -2.168588
   2.69510     -2.245328
   2.72556     -2.315392
   2.75603     -2.378552
   2.78649     -2.434612
   2.81696     -2.483386
   2.84742     -2.524683
   2.87789     -2.558256
   2.90835     -2.583696
   2.93882     -2.600119
   2.96928     -2.605431
   2.99975     -2.600433
 
# Band-Index   22
   2.99975     -2.600433
   2.96928     -2.605431
   2.93882     -2.600119
   2.90835     -2.583696
   2.87789     -2.558256
   2.84742     -2.524683
   2.81696     -2.483386
   2.78649     -2.434612
   2.75603     -2.378552
   2.72556     -2.315392
   2.69510     -2.245328
   2.66463     -2.168588
   2.63417     -2.085450
   2.60370     -1.996262
   2.57324     -1.901494
   2.54277     -1.801802
   2.51230     -1.698179
   2.48184     -1.592274
   2.45137     -1.487289
   2.42091     -1.393605
   2.39044     -1.384642
   2.35998     -1.425518
   2.32951     -1.446816
   2.29905     -1.389666
   2.26858     -1.358452
   2.23812     -1.348409
   2.20765     -1.333009
   2.17719     -1.341832
   2.14672     -1.363737
   2.11626     -1.372793
   2.11626     -1.372793
   2.08510     -1.363511
   2.05393     -1.341901
   2.02277     -1.353190
   1.99161     -1.385304
   1.96045     -1.389211
   1.92929     -1.388632
   1.89813     -1.394461
   1.86696     -1.411044
   1.83580     -1.441117
   1.80464     -1.484022
   1.77348     -1.534284
   1.74232     -1.585144
   1.71116     -1.632612
   1.67999     -1.677786
   1.64883     -1.725967
   1.61767     -1.781043
   1.58651     -1.838698
   1.55535     -1.891946
   1.52419     -1.937860
   1.49302     -1.975796
   1.46186     -2.005601
   1.43070     -2.027477
   1.39954     -2.042465
   1.36838     -2.052490
   1.33722     -2.059516
   1.30605     -2.064731
   1.27489     -2.068525
   1.24373     -2.070880
   1.21257     -2.071683
   1.21257     -2.071683
   1.18210     -2.062692
   1.15164     -2.038773
   1.12117     -2.006105
   1.09071     -1.971497
   1.06024     -1.944018
   1.02978     -1.931558
   0.99931     -1.930509
   0.96885     -1.933489
   0.93838     -1.936648
   0.90792     -1.938305
   0.87745     -1.937504
   0.84699     -1.933268
   0.81652     -1.923899
   0.78606     -1.905525
   0.75559     -1.868449
   0.72513     -1.794142
   0.69466     -1.689473
   0.66419     -1.638689
   0.63373     -1.625594
   0.60326     -1.616408
   0.57280     -1.605101
   0.54233     -1.589310
   0.51187     -1.566249
   0.48140     -1.531777
   0.45094     -1.482190
   0.42047     -1.419238
   0.39001     -1.352128
   0.35954     -1.296143
   0.32908     -1.276871
   0.32908     -1.276871
   0.31773     -1.277203
   0.30638     -1.278194
   0.29503     -1.279823
   0.28369     -1.288655
   0.27234     -1.299869
   0.26099     -1.312410
   0.24964     -1.325356
   0.23830     -1.337029
   0.22695     -1.344211
   0.21560     -1.342612
   0.20425     -1.331626
   0.19291     -1.315376
   0.18156     -1.320523
   0.17021     -1.325680
   0.15886     -1.330788
   0.14752     -1.335793
   0.13617     -1.340645
   0.12482     -1.345294
   0.11347     -1.349696
   0.10213     -1.353810
   0.09078     -1.357598
   0.07943     -1.361026
   0.06808     -1.364062
   0.05674     -1.366679
   0.04539     -1.368852
   0.03404     -1.370564
   0.02269     -1.371799
   0.01135     -1.372544
   0.00000     -1.372793
 
# Band-Index   23
   0.00000     -1.069832
   0.01135     -1.071029
   0.02269     -1.074599
   0.03404     -1.080474
   0.04539     -1.088556
   0.05674     -1.098709
   0.06808     -1.110777
   0.07943     -1.124586
   0.09078     -1.139952
   0.10213     -1.156690
   0.11347     -1.174613
   0.12482     -1.193531
   0.13617     -1.213256
   0.14752     -1.233587
   0.15886     -1.254297
   0.17021     -1.275098
   0.18156     -1.295557
   0.19291     -1.314915
   0.20425     -1.310296
   0.21560     -1.305347
   0.22695     -1.300595
   0.23830     -1.296104
   0.24964     -1.291942
   0.26099     -1.288173
   0.27234     -1.284860
   0.28369     -1.282059
   0.29503     -1.279369
   0.30638     -1.272435
   0.31773     -1.268153
   0.32908     -1.266705
   0.32908     -1.266705
   0.35954     -1.233490
   0.39001     -1.153446
   0.42047     -1.067822
   0.45094     -0.991991
   0.48140     -0.931923
   0.51187     -0.890451
   0.54233     -0.869148
   0.57280     -0.890438
   0.60326     -1.066298
   0.63373     -1.255797
   0.66419     -1.434931
   0.69466     -1.556952
   0.72513     -1.583969
   0.75559     -1.581940
   0.78606     -1.572608
   0.81652     -1.561949
   0.84699     -1.556614
   0.87745     -1.566525
   0.90792     -1.597847
   0.93838     -1.644652
   0.96885     -1.697404
   0.99931     -1.749184
   1.02978     -1.793543
   1.06024     -1.821777
   1.09071     -1.829562
   1.12117     -1.824339
   1.15164     -1.814644
   1.18210     -1.806097
   1.21257     -1.802696
   1.21257     -1.802696
   1.24373     -1.801918
   1.27489     -1.799587
   1.30605     -1.795733
   1.33722     -1.790425
   1.36838     -1.783785
   1.39954     -1.775922
   1.43070     -1.766739
   1.46186     -1.755666
   1.49302     -1.741609
   1.52419     -1.723232
   1.55535     -1.699060
   1.58651     -1.666802
   1.61767     -1.622597
   1.64883     -1.565410
   1.67999     -1.505906
   1.71116     -1.454296
   1.74232     -1.410371
   1.77348     -1.370709
   1.80464     -1.331376
   1.83580     -1.287616
   1.86696     -1.235956
   1.89813     -1.177319
   1.92929     -1.115663
   1.96045     -1.057936
   1.99161     -1.061722
   2.02277     -1.141539
   2.05393     -1.137993
   2.08510     -1.089450
   2.11626     -1.069832
   2.11626     -1.069832
   2.14672     -1.088873
   2.17719     -1.137409
   2.20765     -1.168817
   2.23812     -1.130741
   2.26858     -1.108872
   2.29905     -1.149863
   2.32951     -1.182226
   2.35998     -1.222304
   2.39044     -1.284372
   2.42091     -1.320985
   2.45137     -1.288850
   2.48184     -1.254166
   2.51230     -1.223439
   2.54277     -1.198556
   2.57324     -1.182871
   2.60370     -1.186203
   2.63417     -1.231476
   2.66463     -1.327579
   2.69510     -1.452386
   2.72556     -1.589289
   2.75603     -1.730497
   2.78649     -1.871684
   2.81696     -2.009814
   2.84742     -2.142286
   2.87789     -2.266366
   2.90835     -2.378559
   2.93882     -2.473748
   2.96928     -2.544355
   2.99975     -2.576947
 
# Band-Index   24
   2.99975     -2.576947
   2.96928     -2.544355
   2.93882     -2.473748
   2.90835     -2.378559
   2.87789     -2.266366
   2.84742     -2.142286
   2.81696     -2.009814
   2.78649     -1.871684
   2.75603     -1.730497
   2.72556     -1.589289
   2.69510     -1.452386
   2.66463     -1.327579
   2.63417     -1.231476
   2.60370     -1.186203
   2.57324     -1.182871
   2.54277     -1.198556
   2.51230     -1.223439
   2.48184     -1.254166
   2.45137     -1.288850
   2.42091     -1.320985
   2.39044     -1.284372
   2.35998     -1.222304
   2.32951     -1.182226
   2.29905     -1.149863
   2.26858     -1.108872
   2.23812     -1.130741
   2.20765     -1.168817
   2.17719     -1.137409
   2.14672     -1.088873
   2.11626     -1.069832
   2.11626     -1.069832
   2.08510     -1.089450
   2.05393     -1.137993
   2.02277     -1.141539
   1.99161     -1.061722
   1.96045     -1.057936
   1.92929     -1.115663
   1.89813     -1.177319
   1.86696     -1.235956
   1.83580     -1.287616
   1.80464     -1.331376
   1.77348     -1.370709
   1.74232     -1.410371
   1.71116     -1.454296
   1.67999     -1.505906
   1.64883     -1.565410
   1.61767     -1.622597
   1.58651     -1.666802
   1.55535     -1.699060
   1.52419     -1.723232
   1.49302     -1.741609
   1.46186     -1.755666
   1.43070     -1.766739
   1.39954     -1.775922
   1.36838     -1.783785
   1.33722     -1.790425
   1.30605     -1.795733
   1.27489     -1.799587
   1.24373     -1.801918
   1.21257     -1.802696
   1.21257     -1.802696
   1.18210     -1.806097
   1.15164     -1.814644
   1.12117     -1.824339
   1.09071     -1.829562
   1.06024     -1.821777
   1.02978     -1.793543
   0.99931     -1.749184
   0.96885     -1.697404
   0.93838     -1.644652
   0.90792     -1.597847
   0.87745     -1.566525
   0.84699     -1.556614
   0.81652     -1.561949
   0.78606     -1.572608
   0.75559     -1.581940
   0.72513     -1.583969
   0.69466     -1.556952
   0.66419     -1.434931
   0.63373     -1.255797
   0.60326     -1.066298
   0.57280     -0.890438
   0.54233     -0.869148
   0.51187     -0.890451
   0.48140     -0.931923
   0.45094     -0.991991
   0.42047     -1.067822
   0.39001     -1.153446
   0.35954     -1.233490
   0.32908     -1.266705
   0.32908     -1.266705
   0.31773     -1.268153
   0.30638     -1.272435
   0.29503     -1.279369
   0.28369     -1.282059
   0.27234     -1.284860
   0.26099     -1.288173
   0.24964     -1.291942
   0.23830     -1.296104
   0.22695     -1.300595
   0.21560     -1.305347
   0.20425     -1.310296
   0.19291     -1.314915
   0.18156     -1.295557
   0.17021     -1.275098
   0.15886     -1.254297
   0.14752     -1.233587
   0.13617     -1.213256
   0.12482     -1.193531
   0.11347     -1.174613
   0.10213     -1.156690
   0.09078     -1.139952
   0.07943     -1.124586
   0.06808     -1.110777
   0.05674     -1.098709
   0.04539     -1.088556
   0.03404     -1.080474
   0.02269     -1.074599
   0.01135     -1.071029
   0.00000     -1.069832
 
# Band-Index   25
   0.00000     -0.683591
   0.01135     -0.683930
   0.02269     -0.684943
   0.03404     -0.686620
   0.04539     -0.688946
   0.05674     -0.691898
   0.06808     -0.695448
   0.07943     -0.699561
   0.09078     -0.704198
   0.10213     -0.709313
   0.11347     -0.714859
   0.12482     -0.720777
   0.13617     -0.727010
   0.14752     -0.733492
   0.15886     -0.740159
   0.17021     -0.746941
   0.18156     -0.753760
   0.19291     -0.760540
   0.20425     -0.767203
   0.21560     -0.773667
   0.22695     -0.779850
   0.23830     -0.785668
   0.24964     -0.791040
   0.26099     -0.795887
   0.27234     -0.800135
   0.28369     -0.803715
   0.29503     -0.806567
   0.30638     -0.808641
   0.31773     -0.809902
   0.32908     -0.810325
   0.32908     -0.810325
   0.35954     -0.776989
   0.39001     -0.697871
   0.42047     -0.604292
   0.45094     -0.521391
   0.48140     -0.499911
   0.51187     -0.573420
   0.54233     -0.707795
   0.57280     -0.852609
   0.60326     -0.877515
   0.63373     -0.908818
   0.66419     -0.952493
   0.69466     -1.005897
   0.72513     -1.066105
   0.75559     -1.130172
   0.78606     -1.194925
   0.81652     -1.256268
   0.84699     -1.307742
   0.87745     -1.340003
   0.90792     -1.348628
   0.93838     -1.343237
   0.96885     -1.339350
   0.99931     -1.348959
   1.02978     -1.374647
   1.06024     -1.410581
   1.09071     -1.449712
   1.12117     -1.486793
   1.15164     -1.517746
   1.18210     -1.538722
   1.21257     -1.546232
   1.21257     -1.546232
   1.24373     -1.543602
   1.27489     -1.535796
   1.30605     -1.523044
   1.33722     -1.505773
   1.36838     -1.484771
   1.39954     -1.462265
   1.43070     -1.451070
   1.46186     -1.473118
   1.49302     -1.489966
   1.52419     -1.488670
   1.55535     -1.470653
   1.58651     -1.436236
   1.61767     -1.380669
   1.64883     -1.292033
   1.67999     -1.162041
   1.71116     -1.026788
   1.74232     -0.950325
   1.77348     -0.881916
   1.80464     -0.811010
   1.83580     -0.736929
   1.86696     -0.662272
   1.89813     -0.640519
   1.92929     -0.753138
   1.96045     -0.885804
   1.99161     -0.950510
   2.02277     -0.895522
   2.05393     -0.815056
   2.08510     -0.727709
   2.11626     -0.683591
   2.11626     -0.683591
   2.14672     -0.728064
   2.17719     -0.821004
   2.20765     -0.917402
   2.23812     -1.000179
   2.26858     -1.011218
   2.29905     -0.924251
   2.32951     -0.833535
   2.35998     -0.809636
   2.39044     -0.834466
   2.42091     -0.842776
   2.45137     -0.840165
   2.48184     -0.836939
   2.51230     -0.842402
   2.54277     -0.865647
   2.57324     -0.911992
   2.60370     -0.972889
   2.63417     -1.019172
   2.66463     -1.033643
   2.69510     -1.031500
   2.72556     -1.024229
   2.75603     -1.015850
   2.78649     -1.007768
   2.81696     -1.000512
   2.84742     -0.994293
   2.87789     -0.989188
   2.90835     -0.985221
   2.93882     -0.982395
   2.96928     -0.980702
   2.99975     -0.980138
 
# Band-Index   26
   2.99975     -0.980138
   2.96928     -0.980702
   2.93882     -0.982395
   2.90835     -0.985221
   2.87789     -0.989188
   2.84742     -0.994293
   2.81696     -1.000512
   2.78649     -1.007768
   2.75603     -1.015850
   2.72556     -1.024229
   2.69510     -1.031500
   2.66463     -1.033643
   2.63417     -1.019172
   2.60370     -0.972889
   2.57324     -0.911992
   2.54277     -0.865647
   2.51230     -0.842402
   2.48184     -0.836939
   2.45137     -0.840165
   2.42091     -0.842776
   2.39044     -0.834466
   2.35998     -0.809636
   2.32951     -0.833535
   2.29905     -0.924251
   2.26858     -1.011218
   2.23812     -1.000179
   2.20765     -0.917402
   2.17719     -0.821004
   2.14672     -0.728064
   2.11626     -0.683591
   2.11626     -0.683591
   2.08510     -0.727709
   2.05393     -0.815056
   2.02277     -0.895522
   1.99161     -0.950510
   1.96045     -0.885804
   1.92929     -0.753138
   1.89813     -0.640519
   1.86696     -0.662272
   1.83580     -0.736929
   1.80464     -0.811010
   1.77348     -0.881916
   1.74232     -0.950325
   1.71116     -1.026788
   1.67999     -1.162041
   1.64883     -1.292033
   1.61767     -1.380669
   1.58651     -1.436236
   1.55535     -1.470653
   1.52419     -1.488670
   1.49302     -1.489966
   1.46186     -1.473118
   1.43070     -1.451070
   1.39954     -1.462265
   1.36838     -1.484771
   1.33722     -1.505773
   1.30605     -1.523044
   1.27489     -1.535796
   1.24373     -1.543602
   1.21257     -1.546232
   1.21257     -1.546232
   1.18210     -1.538722
   1.15164     -1.517746
   1.12117     -1.486793
   1.09071     -1.449712
   1.06024     -1.410581
   1.02978     -1.374647
   0.99931     -1.348959
   0.96885     -1.339350
   0.93838     -1.343237
   0.90792     -1.348628
   0.87745     -1.340003
   0.84699     -1.307742
   0.81652     -1.256268
   0.78606     -1.194925
   0.75559     -1.130172
   0.72513     -1.066105
   0.69466     -1.005897
   0.66419     -0.952493
   0.63373     -0.908818
   0.60326     -0.877515
   0.57280     -0.852609
   0.54233     -0.707795
   0.51187     -0.573420
   0.48140     -0.499911
   0.45094     -0.521391
   0.42047     -0.604292
   0.39001     -0.697871
   0.35954     -0.776989
   0.32908     -0.810325
   0.32908     -0.810325
   0.31773     -0.809902
   0.30638     -0.808641
   0.29503     -0.806567
   0.28369     -0.803715
   0.27234     -0.800135
   0.26099     -0.795887
   0.24964     -0.791040
   0.23830     -0.785668
   0.22695     -0.779850
   0.21560     -0.773667
   0.20425     -0.767203
   0.19291     -0.760540
   0.18156     -0.753760
   0.17021     -0.746941
   0.15886     -0.740159
   0.14752     -0.733492
   0.13617     -0.727010
   0.12482     -0.720777
   0.11347     -0.714859
   0.10213     -0.709313
   0.09078     -0.704198
   0.07943     -0.699561
   0.06808     -0.695448
   0.05674     -0.691898
   0.04539     -0.688946
   0.03404     -0.686620
   0.02269     -0.684943
   0.01135     -0.683930
   0.00000     -0.683591
 
# Band-Index   27
   0.00000     -0.262920
   0.01135     -0.263341
   0.02269     -0.264641
   0.03404     -0.266925
   0.04539     -0.270347
   0.05674     -0.275082
   0.06808     -0.281297
   0.07943     -0.289125
   0.09078     -0.298639
   0.10213     -0.309857
   0.11347     -0.322720
   0.12482     -0.337121
   0.13617     -0.352909
   0.14752     -0.369897
   0.15886     -0.387879
   0.17021     -0.406635
   0.18156     -0.425933
   0.19291     -0.445537
   0.20425     -0.465202
   0.21560     -0.484672
   0.22695     -0.503683
   0.23830     -0.521952
   0.24964     -0.539182
   0.26099     -0.555061
   0.27234     -0.569269
   0.28369     -0.581478
   0.29503     -0.591374
   0.30638     -0.598676
   0.31773     -0.603156
   0.32908     -0.604667
   0.32908     -0.604667
   0.35954     -0.580154
   0.39001     -0.517563
   0.42047     -0.444423
   0.45094     -0.387998
   0.48140     -0.333686
   0.51187     -0.258621
   0.54233     -0.190781
   0.57280     -0.153709
   0.60326     -0.159549
   0.63373     -0.202479
   0.66419     -0.268313
   0.69466     -0.346291
   0.72513     -0.430231
   0.75559     -0.516557
   0.78606     -0.602945
   0.81652     -0.687606
   0.84699     -0.768870
   0.87745     -0.844802
   0.90792     -0.912651
   0.93838     -0.968021
   0.96885     -1.004311
   0.99931     -1.015363
   1.02978     -1.002132
   1.06024     -0.973040
   1.09071     -0.937366
   1.12117     -0.902256
   1.15164     -0.873061
   1.18210     -0.853791
   1.21257     -0.847060
   1.21257     -0.847060
   1.24373     -0.870948
   1.27489     -0.936801
   1.30605     -1.030834
   1.33722     -1.137535
   1.36838     -1.242617
   1.39954     -1.332524
   1.43070     -1.385903
   1.46186     -1.376642
   1.49302     -1.344118
   1.52419     -1.305358
   1.55535     -1.262788
   1.58651     -1.216972
   1.61767     -1.167943
   1.64883     -1.115247
   1.67999     -1.056648
   1.71116     -0.966751
   1.74232     -0.806746
   1.77348     -0.653277
   1.80464     -0.542508
   1.83580     -0.497517
   1.86696     -0.523064
   1.89813     -0.552148
   1.92929     -0.480099
   1.96045     -0.396955
   1.99161     -0.317287
   2.02277     -0.252607
   2.05393     -0.222984
   2.08510     -0.240864
   2.11626     -0.262920
   2.11626     -0.262920
   2.14672     -0.241709
   2.17719     -0.234750
   2.20765     -0.290144
   2.23812     -0.387116
   2.26858     -0.499281
   2.29905     -0.609199
   2.32951     -0.696779
   2.35998     -0.694005
   2.39044     -0.619497
   2.42091     -0.552081
   2.45137     -0.505159
   2.48184     -0.482874
   2.51230     -0.482939
   2.54277     -0.495542
   2.57324     -0.507508
   2.60370     -0.510810
   2.63417     -0.505063
   2.66463     -0.493033
   2.69510     -0.477307
   2.72556     -0.459631
   2.75603     -0.441129
   2.78649     -0.422592
   2.81696     -0.404645
   2.84742     -0.387877
   2.87789     -0.372888
   2.90835     -0.360306
   2.93882     -0.350748
   2.96928     -0.344758
   2.99975     -0.342715
 
# Band-Index   28
   2.99975     -0.342715
   2.96928     -0.344758
   2.93882     -0.350748
   2.90835     -0.360306
   2.87789     -0.372888
   2.84742     -0.387877
   2.81696     -0.404645
   2.78649     -0.422592
   2.75603     -0.441129
   2.72556     -0.459631
   2.69510     -0.477307
   2.66463     -0.493033
   2.63417     -0.505063
   2.60370     -0.510810
   2.57324     -0.507508
   2.54277     -0.495542
   2.51230     -0.482939
   2.48184     -0.482874
   2.45137     -0.505159
   2.42091     -0.552081
   2.39044     -0.619497
   2.35998     -0.694005
   2.32951     -0.696779
   2.29905     -0.609199
   2.26858     -0.499281
   2.23812     -0.387116
   2.20765     -0.290144
   2.17719     -0.234750
   2.14672     -0.241709
   2.11626     -0.262920
   2.11626     -0.262920
   2.08510     -0.240864
   2.05393     -0.222984
   2.02277     -0.252607
   1.99161     -0.317287
   1.96045     -0.396955
   1.92929     -0.480099
   1.89813     -0.552148
   1.86696     -0.523064
   1.83580     -0.497517
   1.80464     -0.542508
   1.77348     -0.653277
   1.74232     -0.806746
   1.71116     -0.966751
   1.67999     -1.056648
   1.64883     -1.115247
   1.61767     -1.167943
   1.58651     -1.216972
   1.55535     -1.262788
   1.52419     -1.305358
   1.49302     -1.344118
   1.46186     -1.376642
   1.43070     -1.385903
   1.39954     -1.332524
   1.36838     -1.242617
   1.33722     -1.137535
   1.30605     -1.030834
   1.27489     -0.936801
   1.24373     -0.870948
   1.21257     -0.847060
   1.21257     -0.847060
   1.18210     -0.853791
   1.15164     -0.873061
   1.12117     -0.902256
   1.09071     -0.937366
   1.06024     -0.973040
   1.02978     -1.002132
   0.99931     -1.015363
   0.96885     -1.004311
   0.93838     -0.968021
   0.90792     -0.912651
   0.87745     -0.844802
   0.84699     -0.768870
   0.81652     -0.687606
   0.78606     -0.602945
   0.75559     -0.516557
   0.72513     -0.430231
   0.69466     -0.346291
   0.66419     -0.268313
   0.63373     -0.202479
   0.60326     -0.159549
   0.57280     -0.153709
   0.54233     -0.190781
   0.51187     -0.258621
   0.48140     -0.333686
   0.45094     -0.387998
   0.42047     -0.444423
   0.39001     -0.517563
   0.35954     -0.580154
   0.32908     -0.604667
   0.32908     -0.604667
   0.31773     -0.603156
   0.30638     -0.598676
   0.29503     -0.591374
   0.28369     -0.581478
   0.27234     -0.569269
   0.26099     -0.555061
   0.24964     -0.539182
   0.23830     -0.521952
   0.22695     -0.503683
   0.21560     -0.484672
   0.20425     -0.465202
   0.19291     -0.445537
   0.18156     -0.425933
   0.17021     -0.406635
   0.15886     -0.387879
   0.14752     -0.369897
   0.13617     -0.352909
   0.12482     -0.337121
   0.11347     -0.322720
   0.10213     -0.309857
   0.09078     -0.298639
   0.07943     -0.289125
   0.06808     -0.281297
   0.05674     -0.275082
   0.04539     -0.270347
   0.03404     -0.266925
   0.02269     -0.264641
   0.01135     -0.263341
   0.00000     -0.262920
 
# Band-Index   29
   0.00000      0.164396
   0.01135      0.165075
   0.02269      0.167150
   0.03404      0.170716
   0.04539      0.175914
   0.05674      0.182903
   0.06808      0.191835
   0.07943      0.202827
   0.09078      0.215943
   0.10213      0.231184
   0.11347      0.248495
   0.12482      0.267762
   0.13617      0.288836
   0.14752      0.311540
   0.15886      0.335675
   0.17021      0.361029
   0.18156      0.387392
   0.19291      0.414536
   0.20425      0.442227
   0.21560      0.470214
   0.22695      0.498219
   0.23830      0.525929
   0.24964      0.552971
   0.26099      0.578892
   0.27234      0.603128
   0.28369      0.624974
   0.29503      0.643571
   0.30638      0.657931
   0.31773      0.667066
   0.32908      0.670210
   0.32908      0.670210
   0.35954      0.659449
   0.39001      0.629516
   0.42047      0.587014
   0.45094      0.539583
   0.48140      0.489843
   0.51187      0.439898
   0.54233      0.400969
   0.57280      0.390301
   0.60326      0.418992
   0.63373      0.480705
   0.66419      0.560746
   0.69466      0.647889
   0.72513      0.735532
   0.75559      0.819733
   0.78606      0.897803
   0.81652      0.967530
   0.84699      1.026729
   0.87745      1.072994
   0.90792      1.103651
   0.93838      1.116139
   0.96885      1.108961
   0.99931      1.082933
   1.02978      1.041706
   1.06024      0.991082
   1.09071      0.937700
   1.12117      0.888025
   1.15164      0.847778
   1.18210      0.821582
   1.21257      0.812485
   1.21257      0.812485
   1.24373      0.838449
   1.27489      0.909989
   1.30605      1.011865
   1.33722      1.126314
   1.36838      1.237058
   1.39954      1.331734
   1.43070      1.404066
   1.46186      1.453928
   1.49302      1.484577
   1.52419      1.499592
   1.55535      1.501417
   1.58651      1.491098
   1.61767      1.468428
   1.64883      1.431901
   1.67999      1.377869
   1.71116      1.298539
   1.74232      1.189513
   1.77348      1.071534
   1.80464      0.972978
   1.83580      0.902707
   1.86696      0.833938
   1.89813      0.741510
   1.92929      0.632011
   1.96045      0.514751
   1.99161      0.396727
   2.02277      0.287902
   2.05393      0.206844
   2.08510      0.170635
   2.11626      0.164396
   2.11626      0.164396
   2.14672      0.171356
   2.17719      0.218014
   2.20765      0.324373
   2.23812      0.466204
   2.26858      0.621158
   2.29905      0.778330
   2.32951      0.930739
   2.35998      1.049899
   2.39044      1.002981
   2.42091      0.926761
   2.45137      0.860053
   2.48184      0.810406
   2.51230      0.780427
   2.54277      0.767365
   2.57324      0.764309
   2.60370      0.763222
   2.63417      0.757717
   2.66463      0.744379
   2.69510      0.722664
   2.72556      0.693942
   2.75603      0.660449
   2.78649      0.624587
   2.81696      0.588589
   2.84742      0.554431
   2.87789      0.523836
   2.90835      0.498285
   2.93882      0.479037
   2.96928      0.467063
   2.99975      0.463003
 
# Band-Index   30
   2.99975      0.463003
   2.96928      0.467063
   2.93882      0.479037
   2.90835      0.498285
   2.87789      0.523836
   2.84742      0.554431
   2.81696      0.588589
   2.78649      0.624587
   2.75603      0.660449
   2.72556      0.693942
   2.69510      0.722664
   2.66463      0.744379
   2.63417      0.757717
   2.60370      0.763222
   2.57324      0.764309
   2.54277      0.767365
   2.51230      0.780427
   2.48184      0.810406
   2.45137      0.860053
   2.42091      0.926761
   2.39044      1.002981
   2.35998      1.049899
   2.32951      0.930739
   2.29905      0.778330
   2.26858      0.621158
   2.23812      0.466204
   2.20765      0.324373
   2.17719      0.218014
   2.14672      0.171356
   2.11626      0.164396
   2.11626      0.164396
   2.08510      0.170635
   2.05393      0.206844
   2.02277      0.287902
   1.99161      0.396727
   1.96045      0.514751
   1.92929      0.632011
   1.89813      0.741510
   1.86696      0.833938
   1.83580      0.902707
   1.80464      0.972978
   1.77348      1.071534
   1.74232      1.189513
   1.71116      1.298539
   1.67999      1.377869
   1.64883      1.431901
   1.61767      1.468428
   1.58651      1.491098
   1.55535      1.501417
   1.52419      1.499592
   1.49302      1.484577
   1.46186      1.453928
   1.43070      1.404066
   1.39954      1.331734
   1.36838      1.237058
   1.33722      1.126314
   1.30605      1.011865
   1.27489      0.909989
   1.24373      0.838449
   1.21257      0.812485
   1.21257      0.812485
   1.18210      0.821582
   1.15164      0.847778
   1.12117      0.888025
   1.09071      0.937700
   1.06024      0.991082
   1.02978      1.041706
   0.99931      1.082933
   0.96885      1.108961
   0.93838      1.116139
   0.90792      1.103651
   0.87745      1.072994
   0.84699      1.026729
   0.81652      0.967530
   0.78606      0.897803
   0.75559      0.819733
   0.72513      0.735532
   0.69466      0.647889
   0.66419      0.560746
   0.63373      0.480705
   0.60326      0.418992
   0.57280      0.390301
   0.54233      0.400969
   0.51187      0.439898
   0.48140      0.489843
   0.45094      0.539583
   0.42047      0.587014
   0.39001      0.629516
   0.35954      0.659449
   0.32908      0.670210
   0.32908      0.670210
   0.31773      0.667066
   0.30638      0.657931
   0.29503      0.643571
   0.28369      0.624974
   0.27234      0.603128
   0.26099      0.578892
   0.24964      0.552971
   0.23830      0.525929
   0.22695      0.498219
   0.21560      0.470214
   0.20425      0.442227
   0.19291      0.414536
   0.18156      0.387392
   0.17021      0.361029
   0.15886      0.335675
   0.14752      0.311540
   0.13617      0.288836
   0.12482      0.267762
   0.11347      0.248495
   0.10213      0.231184
   0.09078      0.215943
   0.07943      0.202827
   0.06808      0.191835
   0.05674      0.182903
   0.04539      0.175914
   0.03404      0.170716
   0.02269      0.167150
   0.01135      0.165075
   0.00000      0.164396
 
# Band-Index   31
   0.00000      1.216636
   0.01135      1.218107
   0.02269      1.222496
   0.03404      1.229741
   0.04539      1.239738
   0.05674      1.252352
   0.06808      1.267416
   0.07943      1.284743
   0.09078      1.304129
   0.10213      1.325351
   0.11347      1.348164
   0.12482      1.372228
   0.13617      1.392486
   0.14752      1.376104
   0.15886      1.355841
   0.17021      1.334421
   0.18156      1.312056
   0.19291      1.288895
   0.20425      1.265100
   0.21560      1.240855
   0.22695      1.216371
   0.23830      1.191924
   0.24964      1.167841
   0.26099      1.144541
   0.27234      1.122563
   0.28369      1.102591
   0.29503      1.085467
   0.30638      1.072166
   0.31773      1.063666
   0.32908      1.060736
   0.32908      1.060736
   0.35954      1.038379
   0.39001      0.983144
   0.42047      0.922244
   0.45094      0.888266
   0.48140      0.911013
   0.51187      0.998422
   0.54233      1.133359
   0.57280      1.293575
   0.60326      1.461832
   0.63373      1.624948
   0.66419      1.768689
   0.69466      1.867051
   0.72513      1.923484
   0.75559      1.965604
   0.78606      1.996826
   0.81652      2.014420
   0.84699      2.016405
   0.87745      2.003947
   0.90792      1.981714
   0.93838      1.956490
   0.96885      1.934881
   0.99931      1.921170
   1.02978      1.916375
   1.06024      1.918914
   1.09071      1.926015
   1.12117      1.934816
   1.15164      1.942907
   1.18210      1.948503
   1.21257      1.950493
   1.21257      1.950493
   1.24373      1.954938
   1.27489      1.968873
   1.30605      1.994135
   1.33722      2.033532
   1.36838      2.089748
   1.39954      2.162484
   1.43070      2.243237
   1.46186      2.247919
   1.49302      2.196828
   1.52419      2.132440
   1.55535      2.053670
   1.58651      1.958798
   1.61767      1.847056
   1.64883      1.720210
   1.67999      1.584887
   1.71116      1.455524
   1.74232      1.347403
   1.77348      1.255581
   1.80464      1.172169
   1.83580      1.107766
   1.86696      1.094197
   1.89813      1.141228
   1.92929      1.218855
   1.96045      1.299654
   1.99161      1.366450
   2.02277      1.384807
   2.05393      1.312440
   2.08510      1.243431
   2.11626      1.216636
   2.11626      1.216636
   2.14672      1.243173
   2.17719      1.313809
   2.20765      1.393161
   2.23812      1.383150
   2.26858      1.329309
   2.29905      1.261573
   2.32951      1.186420
   2.35998      1.132486
   2.39044      1.234065
   2.42091      1.356726
   2.45137      1.464157
   2.48184      1.550465
   2.51230      1.613327
   2.54277      1.655225
   2.57324      1.683208
   2.60370      1.705310
   2.63417      1.726466
   2.66463      1.746528
   2.69510      1.761065
   2.72556      1.765162
   2.75603      1.757772
   2.78649      1.741941
   2.81696      1.721868
   2.84742      1.700985
   2.87789      1.681649
   2.90835      1.665392
   2.93882      1.653195
   2.96928      1.645658
   2.99975      1.643115
 
# Band-Index   32
   2.99975      1.643115
   2.96928      1.645658
   2.93882      1.653195
   2.90835      1.665392
   2.87789      1.681649
   2.84742      1.700985
   2.81696      1.721868
   2.78649      1.741941
   2.75603      1.757772
   2.72556      1.765162
   2.69510      1.761065
   2.66463      1.746528
   2.63417      1.726466
   2.60370      1.705310
   2.57324      1.683208
   2.54277      1.655225
   2.51230      1.613327
   2.48184      1.550465
   2.45137      1.464157
   2.42091      1.356726
   2.39044      1.234065
   2.35998      1.132486
   2.32951      1.186420
   2.29905      1.261573
   2.26858      1.329309
   2.23812      1.383150
   2.20765      1.393161
   2.17719      1.313809
   2.14672      1.243173
   2.11626      1.216636
   2.11626      1.216636
   2.08510      1.243431
   2.05393      1.312440
   2.02277      1.384807
   1.99161      1.366450
   1.96045      1.299654
   1.92929      1.218855
   1.89813      1.141228
   1.86696      1.094197
   1.83580      1.107766
   1.80464      1.172169
   1.77348      1.255581
   1.74232      1.347403
   1.71116      1.455524
   1.67999      1.584887
   1.64883      1.720210
   1.61767      1.847056
   1.58651      1.958798
   1.55535      2.053670
   1.52419      2.132440
   1.49302      2.196828
   1.46186      2.247919
   1.43070      2.243237
   1.39954      2.162484
   1.36838      2.089748
   1.33722      2.033532
   1.30605      1.994135
   1.27489      1.968873
   1.24373      1.954938
   1.21257      1.950493
   1.21257      1.950493
   1.18210      1.948503
   1.15164      1.942907
   1.12117      1.934816
   1.09071      1.926015
   1.06024      1.918914
   1.02978      1.916375
   0.99931      1.921170
   0.96885      1.934881
   0.93838      1.956490
   0.90792      1.981714
   0.87745      2.003947
   0.84699      2.016405
   0.81652      2.014420
   0.78606      1.996826
   0.75559      1.965604
   0.72513      1.923484
   0.69466      1.867051
   0.66419      1.768689
   0.63373      1.624948
   0.60326      1.461832
   0.57280      1.293575
   0.54233      1.133359
   0.51187      0.998422
   0.48140      0.911013
   0.45094      0.888266
   0.42047      0.922244
   0.39001      0.983144
   0.35954      1.038379
   0.32908      1.060736
   0.32908      1.060736
   0.31773      1.063666
   0.30638      1.072166
   0.29503      1.085467
   0.28369      1.102591
   0.27234      1.122563
   0.26099      1.144541
   0.24964      1.167841
   0.23830      1.191924
   0.22695      1.216371
   0.21560      1.240855
   0.20425      1.265100
   0.19291      1.288895
   0.18156      1.312056
   0.17021      1.334421
   0.15886      1.355841
   0.14752      1.376104
   0.13617      1.392486
   0.12482      1.372228
   0.11347      1.348164
   0.10213      1.325351
   0.09078      1.304129
   0.07943      1.284743
   0.06808      1.267416
   0.05674      1.252352
   0.04539      1.239738
   0.03404      1.229741
   0.02269      1.222496
   0.01135      1.218107
   0.00000      1.216636
 
# Band-Index   33
   0.00000      1.514178
   0.01135      1.513316
   0.02269      1.510734
   0.03404      1.506443
   0.04539      1.500459
   0.05674      1.492807
   0.06808      1.483519
   0.07943      1.472633
   0.09078      1.460197
   0.10213      1.446268
   0.11347      1.430930
   0.12482      1.414364
   0.13617      1.401468
   0.14752      1.424924
   0.15886      1.451826
   0.17021      1.479304
   0.18156      1.507019
   0.19291      1.534684
   0.20425      1.562017
   0.21560      1.588722
   0.22695      1.614482
   0.23830      1.638971
   0.24964      1.661837
   0.26099      1.682714
   0.27234      1.701231
   0.28369      1.717017
   0.29503      1.729725
   0.30638      1.739045
   0.31773      1.744742
   0.32908      1.746659
   0.32908      1.746659
   0.35954      1.759490
   0.39001      1.787580
   0.42047      1.809917
   0.45094      1.813586
   0.48140      1.803002
   0.51187      1.789949
   0.54233      1.783274
   0.57280      1.787489
   0.60326      1.804223
   0.63373      1.833838
   0.66419      1.879398
   0.69466      1.957179
   0.72513      2.056091
   0.75559      2.143720
   0.78606      2.214759
   0.81652      2.272397
   0.84699      2.320880
   0.87745      2.362916
   0.90792      2.399038
   0.93838      2.428071
   0.96885      2.447923
   0.99931      2.456883
   1.02978      2.455567
   1.06024      2.447285
   1.09071      2.435996
   1.12117      2.424729
   1.15164      2.415468
   1.18210      2.409446
   1.21257      2.407364
   1.21257      2.407364
   1.24373      2.405406
   1.27489      2.399449
   1.30605      2.389242
   1.33722      2.374359
   1.36838      2.354211
   1.39954      2.328169
   1.43070      2.297385
   1.46186      2.332148
   1.49302      2.397980
   1.52419      2.444801
   1.55535      2.472686
   1.58651      2.484487
   1.61767      2.482120
   1.64883      2.465983
   1.67999      2.435273
   1.71116      2.388687
   1.74232      2.325897
   1.77348      2.248742
   1.80464      2.160436
   1.83580      2.064190
   1.86696      1.962695
   1.89813      1.858084
   1.92929      1.751941
   1.96045      1.645606
   1.99161      1.542524
   2.02277      1.473567
   2.05393      1.487541
   2.08510      1.507146
   2.11626      1.514178
   2.11626      1.514178
   2.14672      1.507506
   2.17719      1.489759
   2.20765      1.482340
   2.23812      1.571024
   2.26858      1.702506
   2.29905      1.842626
   2.32951      1.983398
   2.35998      2.117643
   2.39044      2.234372
   2.42091      2.313430
   2.45137      2.333340
   2.48184      2.316592
   2.51230      2.294408
   2.54277      2.273277
   2.57324      2.250947
   2.60370      2.227164
   2.63417      2.205777
   2.66463      2.193303
   2.69510      2.197133
   2.72556      2.222540
   2.75603      2.269511
   2.78649      2.333356
   2.81696      2.408058
   2.84742      2.488277
   2.87789      2.569559
   2.90835      2.647824
   2.93882      2.718399
   2.96928      2.773579
   2.99975      2.796888
 
# Band-Index   34
   2.99975      2.796888
   2.96928      2.773579
   2.93882      2.718399
   2.90835      2.647824
   2.87789      2.569559
   2.84742      2.488277
   2.81696      2.408058
   2.78649      2.333356
   2.75603      2.269511
   2.72556      2.222540
   2.69510      2.197133
   2.66463      2.193303
   2.63417      2.205777
   2.60370      2.227164
   2.57324      2.250947
   2.54277      2.273277
   2.51230      2.294408
   2.48184      2.316592
   2.45137      2.333340
   2.42091      2.313430
   2.39044      2.234372
   2.35998      2.117643
   2.32951      1.983398
   2.29905      1.842626
   2.26858      1.702506
   2.23812      1.571024
   2.20765      1.482340
   2.17719      1.489759
   2.14672      1.507506
   2.11626      1.514178
   2.11626      1.514178
   2.08510      1.507146
   2.05393      1.487541
   2.02277      1.473567
   1.99161      1.542524
   1.96045      1.645606
   1.92929      1.751941
   1.89813      1.858084
   1.86696      1.962695
   1.83580      2.064190
   1.80464      2.160436
   1.77348      2.248742
   1.74232      2.325897
   1.71116      2.388687
   1.67999      2.435273
   1.64883      2.465983
   1.61767      2.482120
   1.58651      2.484487
   1.55535      2.472686
   1.52419      2.444801
   1.49302      2.397980
   1.46186      2.332148
   1.43070      2.297385
   1.39954      2.328169
   1.36838      2.354211
   1.33722      2.374359
   1.30605      2.389242
   1.27489      2.399449
   1.24373      2.405406
   1.21257      2.407364
   1.21257      2.407364
   1.18210      2.409446
   1.15164      2.415468
   1.12117      2.424729
   1.09071      2.435996
   1.06024      2.447285
   1.02978      2.455567
   0.99931      2.456883
   0.96885      2.447923
   0.93838      2.428071
   0.90792      2.399038
   0.87745      2.362916
   0.84699      2.320880
   0.81652      2.272397
   0.78606      2.214759
   0.75559      2.143720
   0.72513      2.056091
   0.69466      1.957179
   0.66419      1.879398
   0.63373      1.833838
   0.60326      1.804223
   0.57280      1.787489
   0.54233      1.783274
   0.51187      1.789949
   0.48140      1.803002
   0.45094      1.813586
   0.42047      1.809917
   0.39001      1.787580
   0.35954      1.759490
   0.32908      1.746659
   0.32908      1.746659
   0.31773      1.744742
   0.30638      1.739045
   0.29503      1.729725
   0.28369      1.717017
   0.27234      1.701231
   0.26099      1.682714
   0.24964      1.661837
   0.23830      1.638971
   0.22695      1.614482
   0.21560      1.588722
   0.20425      1.562017
   0.19291      1.534684
   0.18156      1.507019
   0.17021      1.479304
   0.15886      1.451826
   0.14752      1.424924
   0.13617      1.401468
   0.12482      1.414364
   0.11347      1.430930
   0.10213      1.446268
   0.09078      1.460197
   0.07943      1.472633
   0.06808      1.483519
   0.05674      1.492807
   0.04539      1.500459
   0.03404      1.506443
   0.02269      1.510734
   0.01135      1.513316
   0.00000      1.514178
 
# Band-Index   35
   0.00000      1.920823
   0.01135      1.921617
   0.02269      1.923994
   0.03404      1.927940
   0.04539      1.933432
   0.05674      1.940435
   0.06808      1.948908
   0.07943      1.958799
   0.09078      1.970046
   0.10213      1.982578
   0.11347      1.996312
   0.12482      2.011156
   0.13617      2.027008
   0.14752      2.043750
   0.15886      2.061254
   0.17021      2.079365
   0.18156      2.097941
   0.19291      2.116796
   0.20425      2.135728
   0.21560      2.154518
   0.22695      2.172916
   0.23830      2.190655
   0.24964      2.207439
   0.26099      2.222953
   0.27234      2.236863
   0.28369      2.248840
   0.29503      2.258559
   0.30638      2.265736
   0.31773      2.270140
   0.32908      2.271625
   0.32908      2.271625
   0.35954      2.258684
   0.39001      2.236481
   0.42047      2.233274
   0.45094      2.264140
   0.48140      2.325069
   0.51187      2.404509
   0.54233      2.493835
   0.57280      2.588479
   0.60326      2.686473
   0.63373      2.786974
   0.66419      2.887968
   0.69466      2.979687
   0.72513      3.030134
   0.75559      3.014979
   0.78606      2.964066
   0.81652      2.902648
   0.84699      2.841556
   0.87745      2.786139
   0.90792      2.739246
   0.93838      2.702477
   0.96885      2.676999
   0.99931      2.663336
   1.02978      2.659959
   1.06024      2.663107
   1.09071      2.668851
   1.12117      2.674577
   1.15164      2.679022
   1.18210      2.681739
   1.21257      2.682643
   1.21257      2.682643
   1.24373      2.684419
   1.27489      2.689869
   1.30605      2.699443
   1.33722      2.714033
   1.36838      2.735270
   1.39954      2.765913
   1.43070      2.809957
   1.46186      2.870960
   1.49302      2.946148
   1.52419      3.016775
   1.55535      3.044187
   1.58651      3.005026
   1.61767      2.924731
   1.64883      2.834324
   1.67999      2.751288
   1.71116      2.684307
   1.74232      2.636677
   1.77348      2.607840
   1.80464      2.595166
   1.83580      2.594777
   1.86696      2.599231
   1.89813      2.590121
   1.92929      2.532454
   1.96045      2.411947
   1.99161      2.263036
   2.02277      2.122505
   2.05393      2.012485
   2.08510      1.943938
   2.11626      1.920823
   2.11626      1.920823
   2.14672      1.943489
   2.17719      2.008868
   2.20765      2.109984
   2.23812      2.236528
   2.26858      2.374239
   2.29905      2.501074
   2.32951      2.580942
   2.35998      2.588366
   2.39044      2.553537
   2.42091      2.522526
   2.45137      2.526000
   2.48184      2.549271
   2.51230      2.573884
   2.54277      2.604074
   2.57324      2.645780
   2.60370      2.698409
   2.63417      2.757018
   2.66463      2.816112
   2.69510      2.871341
   2.72556      2.919704
   2.75603      2.959349
   2.78649      2.989279
   2.81696      3.009107
   2.84742      3.018756
   2.87789      3.018289
   2.90835      3.007973
   2.93882      2.989020
   2.96928      2.966182
   2.99975      2.953898
 
# Band-Index   36
   2.99975      2.953898
   2.96928      2.966182
   2.93882      2.989020
   2.90835      3.007973
   2.87789      3.018289
   2.84742      3.018756
   2.81696      3.009107
   2.78649      2.989279
   2.75603      2.959349
   2.72556      2.919704
   2.69510      2.871341
   2.66463      2.816112
   2.63417      2.757018
   2.60370      2.698409
   2.57324      2.645780
   2.54277      2.604074
   2.51230      2.573884
   2.48184      2.549271
   2.45137      2.526000
   2.42091      2.522526
   2.39044      2.553537
   2.35998      2.588366
   2.32951      2.580942
   2.29905      2.501074
   2.26858      2.374239
   2.23812      2.236528
   2.20765      2.109984
   2.17719      2.008868
   2.14672      1.943489
   2.11626      1.920823
   2.11626      1.920823
   2.08510      1.943938
   2.05393      2.012485
   2.02277      2.122505
   1.99161      2.263036
   1.96045      2.411947
   1.92929      2.532454
   1.89813      2.590121
   1.86696      2.599231
   1.83580      2.594777
   1.80464      2.595166
   1.77348      2.607840
   1.74232      2.636677
   1.71116      2.684307
   1.67999      2.751288
   1.64883      2.834324
   1.61767      2.924731
   1.58651      3.005026
   1.55535      3.044187
   1.52419      3.016775
   1.49302      2.946148
   1.46186      2.870960
   1.43070      2.809957
   1.39954      2.765913
   1.36838      2.735270
   1.33722      2.714033
   1.30605      2.699443
   1.27489      2.689869
   1.24373      2.684419
   1.21257      2.682643
   1.21257      2.682643
   1.18210      2.681739
   1.15164      2.679022
   1.12117      2.674577
   1.09071      2.668851
   1.06024      2.663107
   1.02978      2.659959
   0.99931      2.663336
   0.96885      2.676999
   0.93838      2.702477
   0.90792      2.739246
   0.87745      2.786139
   0.84699      2.841556
   0.81652      2.902648
   0.78606      2.964066
   0.75559      3.014979
   0.72513      3.030134
   0.69466      2.979687
   0.66419      2.887968
   0.63373      2.786974
   0.60326      2.686473
   0.57280      2.588479
   0.54233      2.493835
   0.51187      2.404509
   0.48140      2.325069
   0.45094      2.264140
   0.42047      2.233274
   0.39001      2.236481
   0.35954      2.258684
   0.32908      2.271625
   0.32908      2.271625
   0.31773      2.270140
   0.30638      2.265736
   0.29503      2.258559
   0.28369      2.248840
   0.27234      2.236863
   0.26099      2.222953
   0.24964      2.207439
   0.23830      2.190655
   0.22695      2.172916
   0.21560      2.154518
   0.20425      2.135728
   0.19291      2.116796
   0.18156      2.097941
   0.17021      2.079365
   0.15886      2.061254
   0.14752      2.043750
   0.13617      2.027008
   0.12482      2.011156
   0.11347      1.996312
   0.10213      1.982578
   0.09078      1.970046
   0.07943      1.958799
   0.06808      1.948909
   0.05674      1.940435
   0.04539      1.933432
   0.03404      1.927940
   0.02269      1.923994
   0.01135      1.921617
   0.00000      1.920823
 
# Band-Index   37
   0.00000      3.138769
   0.01135      3.137911
   0.02269      3.135338
   0.03404      3.131065
   0.04539      3.125108
   0.05674      3.117496
   0.06808      3.108266
   0.07943      3.097460
   0.09078      3.085146
   0.10213      3.071376
   0.11347      3.056245
   0.12482      3.039847
   0.13617      3.022285
   0.14752      3.003689
   0.15886      2.984199
   0.17021      2.963980
   0.18156      2.943216
   0.19291      2.922112
   0.20425      2.900904
   0.21560      2.879850
   0.22695      2.859230
   0.23830      2.839365
   0.24964      2.820590
   0.26099      2.803260
   0.27234      2.787747
   0.28369      2.774417
   0.29503      2.763619
   0.30638      2.755658
   0.31773      2.750776
   0.32908      2.749131
   0.32908      2.749131
   0.35954      2.782536
   0.39001      2.867466
   0.42047      2.978296
   0.45094      3.095368
   0.48140      3.198866
   0.51187      3.265744
   0.54233      3.305197
   0.57280      3.326989
   0.60326      3.332181
   0.63373      3.321998
   0.66419      3.301082
   0.69466      3.283182
   0.72513      3.303868
   0.75559      3.388529
   0.78606      3.502002
   0.81652      3.597107
   0.84699      3.636415
   0.87745      3.637186
   0.90792      3.623130
   0.93838      3.603299
   0.96885      3.581742
   0.99931      3.561070
   1.02978      3.543350
   1.06024      3.530274
   1.09071      3.523119
   1.12117      3.522574
   1.15164      3.528341
   1.18210      3.537948
   1.21257      3.543683
   1.21257      3.543683
   1.24373      3.546286
   1.27489      3.553142
   1.30605      3.560751
   1.33722      3.563104
   1.36838      3.556668
   1.39954      3.541922
   1.43070      3.519665
   1.46186      3.490372
   1.49302      3.456148
   1.52419      3.426183
   1.55535      3.422602
   1.58651      3.448420
   1.61767      3.455728
   1.64883      3.429170
   1.67999      3.392888
   1.71116      3.358795
   1.74232      3.329581
   1.77348      3.304300
   1.80464      3.279074
   1.83580      3.244289
   1.86696      3.180531
   1.89813      3.088709
   1.92929      3.024727
   1.96045      3.023393
   1.99161      3.058201
   2.02277      3.095907
   2.05393      3.121644
   2.08510      3.134848
   2.11626      3.138769
   2.11626      3.138769
   2.14672      3.135236
   2.17719      3.124333
   2.20765      3.105060
   2.23812      3.075732
   2.26858      3.036014
   2.29905      2.994615
   2.32951      2.976213
   2.35998      2.992206
   2.39044      3.017515
   2.42091      3.050519
   2.45137      3.106198
   2.48184      3.190475
   2.51230      3.296803
   2.54277      3.413828
   2.57324      3.531341
   2.60370      3.641081
   2.63417      3.735692
   2.66463      3.808067
   2.69510      3.852733
   2.72556      3.871017
   2.75603      3.872817
   2.78649      3.868024
   2.81696      3.860977
   2.84742      3.851794
   2.87789      3.839400
   2.90835      3.824260
   2.93882      3.809260
   2.96928      3.798257
   2.99975      3.794227
 
# Band-Index   38
   2.99975      3.794227
   2.96928      3.798257
   2.93882      3.809260
   2.90835      3.824260
   2.87789      3.839400
   2.84742      3.851794
   2.81696      3.860977
   2.78649      3.868024
   2.75603      3.872817
   2.72556      3.871017
   2.69510      3.852733
   2.66463      3.808067
   2.63417      3.735692
   2.60370      3.641081
   2.57324      3.531341
   2.54277      3.413828
   2.51230      3.296803
   2.48184      3.190475
   2.45137      3.106198
   2.42091      3.050519
   2.39044      3.017515
   2.35998      2.992206
   2.32951      2.976213
   2.29905      2.994615
   2.26858      3.036014
   2.23812      3.075732
   2.20765      3.105060
   2.17719      3.124333
   2.14672      3.135236
   2.11626      3.138769
   2.11626      3.138769
   2.08510      3.134848
   2.05393      3.121644
   2.02277      3.095907
   1.99161      3.058201
   1.96045      3.023393
   1.92929      3.024727
   1.89813      3.088709
   1.86696      3.180531
   1.83580      3.244289
   1.80464      3.279074
   1.77348      3.304300
   1.74232      3.329581
   1.71116      3.358795
   1.67999      3.392888
   1.64883      3.429170
   1.61767      3.455728
   1.58651      3.448420
   1.55535      3.422602
   1.52419      3.426183
   1.49302      3.456148
   1.46186      3.490372
   1.43070      3.519665
   1.39954      3.541922
   1.36838      3.556668
   1.33722      3.563104
   1.30605      3.560751
   1.27489      3.553142
   1.24373      3.546286
   1.21257      3.543683
   1.21257      3.543683
   1.18210      3.537948
   1.15164      3.528341
   1.12117      3.522574
   1.09071      3.523119
   1.06024      3.530274
   1.02978      3.543350
   0.99931      3.561070
   0.96885      3.581742
   0.93838      3.603299
   0.90792      3.623130
   0.87745      3.637186
   0.84699      3.636415
   0.81652      3.597107
   0.78606      3.502002
   0.75559      3.388529
   0.72513      3.303868
   0.69466      3.283182
   0.66419      3.301082
   0.63373      3.321998
   0.60326      3.332181
   0.57280      3.326989
   0.54233      3.305197
   0.51187      3.265744
   0.48140      3.198866
   0.45094      3.095368
   0.42047      2.978296
   0.39001      2.867466
   0.35954      2.782536
   0.32908      2.749131
   0.32908      2.749131
   0.31773      2.750776
   0.30638      2.755658
   0.29503      2.763619
   0.28369      2.774417
   0.27234      2.787747
   0.26099      2.803260
   0.24964      2.820590
   0.23830      2.839365
   0.22695      2.859230
   0.21560      2.879850
   0.20425      2.900904
   0.19291      2.922112
   0.18156      2.943216
   0.17021      2.963980
   0.15886      2.984199
   0.14752      3.003689
   0.13617      3.022285
   0.12482      3.039847
   0.11347      3.056245
   0.10213      3.071376
   0.09078      3.085146
   0.07943      3.097460
   0.06808      3.108266
   0.05674      3.117496
   0.04539      3.125108
   0.03404      3.131065
   0.02269      3.135338
   0.01135      3.137911
   0.00000      3.138769
 
# Band-Index   39
   0.00000      3.511453
   0.01135      3.510418
   0.02269      3.507320
   0.03404      3.502184
   0.04539      3.495051
   0.05674      3.485977
   0.06808      3.475034
   0.07943      3.462307
   0.09078      3.447898
   0.10213      3.431918
   0.11347      3.414494
   0.12482      3.395774
   0.13617      3.375902
   0.14752      3.355050
   0.15886      3.333394
   0.17021      3.311128
   0.18156      3.288462
   0.19291      3.265619
   0.20425      3.242846
   0.21560      3.220404
   0.22695      3.198574
   0.23830      3.177669
   0.24964      3.158012
   0.26099      3.139950
   0.27234      3.123838
   0.28369      3.110033
   0.29503      3.098872
   0.30638      3.090657
   0.31773      3.085622
   0.32908      3.083927
   0.32908      3.083927
   0.35954      3.093020
   0.39001      3.118991
   0.42047      3.158515
   0.45094      3.208237
   0.48140      3.271104
   0.51187      3.357530
   0.54233      3.449237
   0.57280      3.530675
   0.60326      3.598328
   0.63373      3.651972
   0.66419      3.692494
   0.69466      3.721422
   0.72513      3.740950
   0.75559      3.754758
   0.78606      3.771247
   0.81652      3.813815
   0.84699      3.908414
   0.87745      4.026350
   0.90792      4.113734
   0.93838      4.108489
   0.96885      4.044778
   0.99931      3.970242
   1.02978      3.897638
   1.06024      3.830382
   1.09071      3.769749
   1.12117      3.716547
   1.15164      3.671953
   1.18210      3.638897
   1.21257      3.625332
   1.21257      3.625332
   1.24373      3.625569
   1.27489      3.627111
   1.30605      3.633121
   1.33722      3.648949
   1.36838      3.677215
   1.39954      3.716098
   1.43070      3.762693
   1.46186      3.812334
   1.49302      3.849659
   1.52419      3.827601
   1.55535      3.752644
   1.58651      3.695054
   1.61767      3.692146
   1.64883      3.730090
   1.67999      3.766156
   1.71116      3.777471
   1.74232      3.754939
   1.77348      3.696622
   1.80464      3.607311
   1.83580      3.502338
   1.86696      3.414161
   1.89813      3.368452
   1.92929      3.353414
   1.96045      3.356897
   1.99161      3.377365
   2.02277      3.414573
   2.05393      3.460030
   2.08510      3.497209
   2.11626      3.511453
   2.11626      3.511453
   2.14672      3.497290
   2.17719      3.457361
   2.20765      3.399035
   2.23812      3.333786
   2.26858      3.275784
   2.29905      3.238385
   2.32951      3.234228
   2.35998      3.281135
   2.39044      3.382930
   2.42091      3.514463
   2.45137      3.651959
   2.48184      3.782832
   2.51230      3.900845
   2.54277      4.002841
   2.57324      4.086724
   2.60370      4.146126
   2.63417      4.150032
   2.66463      4.116144
   2.69510      4.090256
   2.72556      4.077018
   2.75603      4.068517
   2.78649      4.057811
   2.81696      4.044030
   2.84742      4.030192
   2.87789      4.020053
   2.90835      4.015386
   2.93882      4.015059
   2.96928      4.016455
   2.99975      4.017216
 
# Band-Index   40
   2.99975      4.017216
   2.96928      4.016455
   2.93882      4.015059
   2.90835      4.015386
   2.87789      4.020053
   2.84742      4.030192
   2.81696      4.044030
   2.78649      4.057811
   2.75603      4.068517
   2.72556      4.077018
   2.69510      4.090256
   2.66463      4.116144
   2.63417      4.150032
   2.60370      4.146126
   2.57324      4.086724
   2.54277      4.002841
   2.51230      3.900845
   2.48184      3.782832
   2.45137      3.651959
   2.42091      3.514463
   2.39044      3.382930
   2.35998      3.281135
   2.32951      3.234228
   2.29905      3.238385
   2.26858      3.275784
   2.23812      3.333786
   2.20765      3.399035
   2.17719      3.457361
   2.14672      3.497290
   2.11626      3.511453
   2.11626      3.511453
   2.08510      3.497209
   2.05393      3.460030
   2.02277      3.414573
   1.99161      3.377365
   1.96045      3.356897
   1.92929      3.353414
   1.89813      3.368452
   1.86696      3.414161
   1.83580      3.502338
   1.80464      3.607311
   1.77348      3.696622
   1.74232      3.754939
   1.71116      3.777471
   1.67999      3.766156
   1.64883      3.730090
   1.61767      3.692146
   1.58651      3.695054
   1.55535      3.752644
   1.52419      3.827601
   1.49302      3.849659
   1.46186      3.812334
   1.43070      3.762693
   1.39954      3.716098
   1.36838      3.677215
   1.33722      3.648949
   1.30605      3.633121
   1.27489      3.627111
   1.24373      3.625569
   1.21257      3.625332
   1.21257      3.625332
   1.18210      3.638897
   1.15164      3.671953
   1.12117      3.716547
   1.09071      3.769749
   1.06024      3.830382
   1.02978      3.897638
   0.99931      3.970242
   0.96885      4.044778
   0.93838      4.108489
   0.90792      4.113734
   0.87745      4.026350
   0.84699      3.908414
   0.81652      3.813815
   0.78606      3.771247
   0.75559      3.754758
   0.72513      3.740950
   0.69466      3.721422
   0.66419      3.692494
   0.63373      3.651972
   0.60326      3.598328
   0.57280      3.530675
   0.54233      3.449237
   0.51187      3.357530
   0.48140      3.271104
   0.45094      3.208237
   0.42047      3.158515
   0.39001      3.118991
   0.35954      3.093020
   0.32908      3.083927
   0.32908      3.083927
   0.31773      3.085622
   0.30638      3.090657
   0.29503      3.098872
   0.28369      3.110033
   0.27234      3.123838
   0.26099      3.139950
   0.24964      3.158012
   0.23830      3.177669
   0.22695      3.198574
   0.21560      3.220404
   0.20425      3.242846
   0.19291      3.265619
   0.18156      3.288462
   0.17021      3.311128
   0.15886      3.333394
   0.14752      3.355050
   0.13617      3.375902
   0.12482      3.395774
   0.11347      3.414494
   0.10213      3.431918
   0.09078      3.447898
   0.07943      3.462307
   0.06808      3.475034
   0.05674      3.485977
   0.04539      3.495051
   0.03404      3.502184
   0.02269      3.507320
   0.01135      3.510418
   0.00000      3.511453
 
# Band-Index   41
   0.00000      5.770945
   0.01135      5.769739
   0.02269      5.766147
   0.03404      5.760238
   0.04539      5.752126
   0.05674      5.741979
   0.06808      5.730011
   0.07943      5.716465
   0.09078      5.701635
   0.10213      5.685786
   0.11347      5.669275
   0.12482      5.652353
   0.13617      5.635307
   0.14752      5.618386
   0.15886      5.601811
   0.17021      5.585774
   0.18156      5.570437
   0.19291      5.555874
   0.20425      5.542309
   0.21560      5.529771
   0.22695      5.518314
   0.23830      5.508003
   0.24964      5.498865
   0.26099      5.490923
   0.27234      5.484191
   0.28369      5.478691
   0.29503      5.474402
   0.30638      5.471339
   0.31773      5.469508
   0.32908      5.468896
   0.32908      5.468896
   0.35954      5.475064
   0.39001      5.493505
   0.42047      5.523862
   0.45094      5.565088
   0.48140      5.614112
   0.51187      5.660784
   0.54233      5.673827
   0.57280      5.618917
   0.60326      5.520459
   0.63373      5.405455
   0.66419      5.282959
   0.69466      5.156197
   0.72513      5.027233
   0.75559      4.898167
   0.78606      4.771307
   0.81652      4.649310
   0.84699      4.535854
   0.87745      4.439078
   0.90792      4.387515
   0.93838      4.433235
   0.96885      4.537563
   0.99931      4.650027
   1.02978      4.755750
   1.06024      4.849573
   1.09071      4.928882
   1.12117      4.992018
   1.15164      5.037850
   1.18210      5.065640
   1.21257      5.074950
   1.21257      5.074950
   1.24373      5.058079
   1.27489      5.008280
   1.30605      4.927886
   1.33722      4.820576
   1.36838      4.691166
   1.39954      4.545600
   1.43070      4.391424
   1.46186      4.239802
   1.49302      4.114596
   1.52419      4.073318
   1.55535      4.121321
   1.58651      4.203219
   1.61767      4.300172
   1.64883      4.407391
   1.67999      4.523086
   1.71116      4.646271
   1.74232      4.776155
   1.77348      4.911986
   1.80464      5.052886
   1.83580      5.197733
   1.86696      5.344933
   1.89813      5.491666
   1.92929      5.630299
   1.96045      5.730994
   1.99161      5.765047
   2.02277      5.773147
   2.05393      5.773916
   2.08510      5.772065
   2.11626      5.770945
   2.11626      5.770945
   2.14672      5.772396
   2.17719      5.774034
   2.20765      5.766322
   2.23812      5.727976
   2.26858      5.636152
   2.29905      5.503429
   2.32951      5.354683
   2.35998      5.202665
   2.39044      5.053157
   2.42091      4.909268
   2.45137      4.773005
   2.48184      4.645898
   2.51230      4.529280
   2.54277      4.424636
   2.57324      4.334442
   2.60370      4.267112
   2.63417      4.257278
   2.66463      4.292184
   2.69510      4.330331
   2.72556      4.365308
   2.75603      4.395294
   2.78649      4.418102
   2.81696      4.431955
   2.84742      4.436465
   2.87789      4.432971
   2.90835      4.424274
   2.93882      4.414040
   2.96928      4.405989
   2.99975      4.402949
 
# Band-Index   42
   2.99975      4.402949
   2.96928      4.405989
   2.93882      4.414040
   2.90835      4.424274
   2.87789      4.432971
   2.84742      4.436465
   2.81696      4.431955
   2.78649      4.418102
   2.75603      4.395295
   2.72556      4.365308
   2.69510      4.330331
   2.66463      4.292184
   2.63417      4.257278
   2.60370      4.267112
   2.57324      4.334442
   2.54277      4.424636
   2.51230      4.529280
   2.48184      4.645898
   2.45137      4.773005
   2.42091      4.909268
   2.39044      5.053157
   2.35998      5.202665
   2.32951      5.354683
   2.29905      5.503429
   2.26858      5.636152
   2.23812      5.727976
   2.20765      5.766322
   2.17719      5.774034
   2.14672      5.772396
   2.11626      5.770945
   2.11626      5.770945
   2.08510      5.772065
   2.05393      5.773916
   2.02277      5.773147
   1.99161      5.765047
   1.96045      5.730994
   1.92929      5.630299
   1.89813      5.491666
   1.86696      5.344933
   1.83580      5.197733
   1.80464      5.052886
   1.77348      4.911986
   1.74232      4.776155
   1.71116      4.646271
   1.67999      4.523086
   1.64883      4.407391
   1.61767      4.300172
   1.58651      4.203219
   1.55535      4.121321
   1.52419      4.073318
   1.49302      4.114596
   1.46186      4.239802
   1.43070      4.391424
   1.39954      4.545600
   1.36838      4.691166
   1.33722      4.820576
   1.30605      4.927886
   1.27489      5.008280
   1.24373      5.058079
   1.21257      5.074950
   1.21257      5.074950
   1.18210      5.065640
   1.15164      5.037850
   1.12117      4.992018
   1.09071      4.928882
   1.06024      4.849573
   1.02978      4.755750
   0.99931      4.650027
   0.96885      4.537563
   0.93838      4.433235
   0.90792      4.387515
   0.87745      4.439078
   0.84699      4.535854
   0.81652      4.649310
   0.78606      4.771307
   0.75559      4.898167
   0.72513      5.027233
   0.69466      5.156197
   0.66419      5.282959
   0.63373      5.405455
   0.60326      5.520459
   0.57280      5.618917
   0.54233      5.673827
   0.51187      5.660784
   0.48140      5.614112
   0.45094      5.565088
   0.42047      5.523862
   0.39001      5.493505
   0.35954      5.475064
   0.32908      5.468896
   0.32908      5.468896
   0.31773      5.469508
   0.30638      5.471339
   0.29503      5.474402
   0.28369      5.478691
   0.27234      5.484191
   0.26099      5.490923
   0.24964      5.498865
   0.23830      5.508003
   0.22695      5.518314
   0.21560      5.529771
   0.20425      5.542309
   0.19291      5.555874
   0.18156      5.570437
   0.17021      5.585774
   0.15886      5.601811
   0.14752      5.618386
   0.13617      5.635307
   0.12482      5.652353
   0.11347      5.669275
   0.10213      5.685786
   0.09078      5.701635
   0.07943      5.716465
   0.06808      5.730011
   0.05674      5.741979
   0.04539      5.752126
   0.03404      5.760238
   0.02269      5.766147
   0.01135      5.769739
   0.00000      5.770945
 
# Band-Index   43
   0.00000      6.383332
   0.01135      6.383619
   0.02269      6.384545
   0.03404      6.386294
   0.04539      6.389122
   0.05674      6.393334
   0.06808      6.399229
   0.07943      6.407032
   0.09078      6.417009
   0.10213      6.429262
   0.11347      6.443875
   0.12482      6.460855
   0.13617      6.480247
   0.14752      6.501970
   0.15886      6.525939
   0.17021      6.552028
   0.18156      6.580030
   0.19291      6.609547
   0.20425      6.605265
   0.21560      6.592584
   0.22695      6.580953
   0.23830      6.570425
   0.24964      6.561044
   0.26099      6.552847
   0.27234      6.545864
   0.28369      6.540145
   0.29503      6.535658
   0.30638      6.532443
   0.31773      6.530506
   0.32908      6.529861
   0.32908      6.529861
   0.35954      6.514481
   0.39001      6.454185
   0.42047      6.355422
   0.45094      6.241681
   0.48140      6.127930
   0.51187      6.029539
   0.54233      5.979644
   0.57280      6.012244
   0.60326      6.099872
   0.63373      6.199465
   0.66419      6.198624
   0.69466      6.124960
   0.72513      6.058234
   0.75559      6.006879
   0.78606      5.971612
   0.81652      5.951827
   0.84699      5.946640
   0.87745      5.955189
   0.90792      5.976690
   0.93838      6.010432
   0.96885      6.055774
   0.99931      6.112072
   1.02978      6.178604
   1.06024      6.254388
   1.09071      6.337900
   1.12117      6.426279
   1.15164      6.513473
   1.18210      6.585606
   1.21257      6.616005
   1.21257      6.616005
   1.24373      6.613635
   1.27489      6.607189
   1.30605      6.598271
   1.33722      6.588726
   1.36838      6.580148
   1.39954      6.573651
   1.43070      6.569850
   1.46186      6.568871
   1.49302      6.570269
   1.52419      6.572800
   1.55535      6.573852
   1.58651      6.568474
   1.61767      6.548211
   1.64883      6.502316
   1.67999      6.425499
   1.71116      6.325388
   1.74232      6.216595
   1.77348      6.111728
   1.80464      6.019130
   1.83580      5.943750
   1.86696      5.888098
   1.89813      5.853447
   1.92929      5.843666
   1.96045      5.882897
   1.99161      5.992548
   2.02277      6.123608
   2.05393      6.247549
   2.08510      6.344239
   2.11626      6.383332
   2.11626      6.383332
   2.14672      6.344142
   2.17719      6.248129
   2.20765      6.132235
   2.23812      6.033178
   2.26858      5.982223
   2.29905      5.972943
   2.32951      5.986196
   2.35998      6.014567
   2.39044      6.056992
   2.42091      6.114001
   2.45137      6.185807
   2.48184      6.271321
   2.51230      6.366889
   2.54277      6.462840
   2.57324      6.532359
   2.60370      6.523665
   2.63417      6.431890
   2.66463      6.306771
   2.69510      6.176654
   2.72556      6.052492
   2.75603      5.939322
   2.78649      5.839924
   2.81696      5.755827
   2.84742      5.687529
   2.87789      5.634580
   2.90835      5.595791
   2.93882      5.569621
   2.96928      5.554610
   2.99975      5.549726
 
# Band-Index   44
   2.99975      5.549726
   2.96928      5.554610
   2.93882      5.569622
   2.90835      5.595791
   2.87789      5.634580
   2.84742      5.687529
   2.81696      5.755827
   2.78649      5.839924
   2.75603      5.939322
   2.72556      6.052492
   2.69510      6.176654
   2.66463      6.306771
   2.63417      6.431890
   2.60370      6.523665
   2.57324      6.532359
   2.54277      6.462840
   2.51230      6.366889
   2.48184      6.271321
   2.45137      6.185807
   2.42091      6.114001
   2.39044      6.056992
   2.35998      6.014567
   2.32951      5.986196
   2.29905      5.972943
   2.26858      5.982223
   2.23812      6.033178
   2.20765      6.132235
   2.17719      6.248129
   2.14672      6.344142
   2.11626      6.383332
   2.11626      6.383332
   2.08510      6.344239
   2.05393      6.247549
   2.02277      6.123608
   1.99161      5.992548
   1.96045      5.882897
   1.92929      5.843666
   1.89813      5.853447
   1.86696      5.888098
   1.83580      5.943750
   1.80464      6.019130
   1.77348      6.111728
   1.74232      6.216595
   1.71116      6.325388
   1.67999      6.425499
   1.64883      6.502316
   1.61767      6.548211
   1.58651      6.568474
   1.55535      6.573852
   1.52419      6.572800
   1.49302      6.570269
   1.46186      6.568871
   1.43070      6.569850
   1.39954      6.573651
   1.36838      6.580148
   1.33722      6.588726
   1.30605      6.598271
   1.27489      6.607189
   1.24373      6.613635
   1.21257      6.616005
   1.21257      6.616005
   1.18210      6.585606
   1.15164      6.513473
   1.12117      6.426279
   1.09071      6.337900
   1.06024      6.254388
   1.02978      6.178604
   0.99931      6.112072
   0.96885      6.055774
   0.93838      6.010432
   0.90792      5.976690
   0.87745      5.955189
   0.84699      5.946640
   0.81652      5.951827
   0.78606      5.971612
   0.75559      6.006879
   0.72513      6.058234
   0.69466      6.124960
   0.66419      6.198624
   0.63373      6.199465
   0.60326      6.099872
   0.57280      6.012244
   0.54233      5.979644
   0.51187      6.029539
   0.48140      6.127930
   0.45094      6.241681
   0.42047      6.355422
   0.39001      6.454185
   0.35954      6.514481
   0.32908      6.529861
   0.32908      6.529861
   0.31773      6.530506
   0.30638      6.532443
   0.29503      6.535658
   0.28369      6.540145
   0.27234      6.545864
   0.26099      6.552847
   0.24964      6.561044
   0.23830      6.570425
   0.22695      6.580953
   0.21560      6.592584
   0.20425      6.605265
   0.19291      6.609547
   0.18156      6.580030
   0.17021      6.552028
   0.15886      6.525939
   0.14752      6.501970
   0.13617      6.480247
   0.12482      6.460855
   0.11347      6.443875
   0.10213      6.429262
   0.09078      6.417009
   0.07943      6.407032
   0.06808      6.399229
   0.05674      6.393334
   0.04539      6.389122
   0.03404      6.386294
   0.02269      6.384545
   0.01135      6.383619
   0.00000      6.383332
 
# Band-Index   45
   0.00000      6.849737
   0.01135      6.848194
   0.02269      6.843634
   0.03404      6.836247
   0.04539      6.826325
   0.05674      6.814211
   0.06808      6.800313
   0.07943      6.785007
   0.09078      6.768663
   0.10213      6.751589
   0.11347      6.734146
   0.12482      6.716585
   0.13617      6.699084
   0.14752      6.681889
   0.15886      6.665152
   0.17021      6.649018
   0.18156      6.633609
   0.19291      6.618935
   0.20425      6.639637
   0.21560      6.667365
   0.22695      6.684506
   0.23830      6.686662
   0.24964      6.682279
   0.26099      6.676513
   0.27234      6.670935
   0.28369      6.666112
   0.29503      6.662213
   0.30638      6.659376
   0.31773      6.657652
   0.32908      6.657075
   0.32908      6.657075
   0.35954      6.645907
   0.39001      6.642681
   0.42047      6.666115
   0.45094      6.708829
   0.48140      6.765278
   0.51187      6.810643
   0.54233      6.715060
   0.57280      6.587400
   0.60326      6.464178
   0.63373      6.367702
   0.66419      6.404590
   0.69466      6.545916
   0.72513      6.710807
   0.75559      6.889212
   0.78606      7.078189
   0.81652      7.275441
   0.84699      7.477856
   0.87745      7.679444
   0.90792      7.866544
   0.93838      8.009020
   0.96885      8.057470
   0.99931      7.992101
   1.02978      7.862073
   1.06024      7.710309
   1.09071      7.555869
   1.12117      7.408680
   1.15164      7.278008
   1.18210      7.179293
   1.21257      7.139954
   1.21257      7.139954
   1.24373      7.148824
   1.27489      7.174703
   1.30605      7.215724
   1.33722      7.269575
   1.36838      7.333953
   1.39954      7.406579
   1.43070      7.484746
   1.46186      7.564040
   1.49302      7.633608
   1.52419      7.657615
   1.55535      7.574776
   1.58651      7.428711
   1.61767      7.289020
   1.64883      7.185437
   1.67999      7.128940
   1.71116      7.113971
   1.74232      7.125989
   1.77348      7.146941
   1.80464      7.130795
   1.83580      7.060255
   1.86696      6.991273
   1.89813      6.937525
   1.92929      6.900665
   1.96045      6.879765
   1.99161      6.872043
   2.02277      6.872263
   2.05393      6.871254
   2.08510      6.859841
   2.11626      6.849737
   2.11626      6.849737
   2.14672      6.861246
   2.17719      6.883009
   2.20765      6.904754
   2.23812      6.928617
   2.26858      6.958590
   2.29905      6.997615
   2.32951      7.047597
   2.35998      7.109709
   2.39044      7.184644
   2.42091      7.272621
   2.45137      7.372681
   2.48184      7.421582
   2.51230      7.288746
   2.54277      7.146868
   2.57324      7.042414
   2.60370      7.031898
   2.63417      7.121831
   2.66463      7.263311
   2.69510      7.428450
   2.72556      7.606693
   2.75603      7.793201
   2.78649      7.984893
   2.81696      8.179158
   2.84742      8.373024
   2.87789      8.562450
   2.90835      8.741123
   2.93882      8.898001
   2.96928      9.013228
   2.99975      9.057449
 
# Band-Index   46
   2.99975      9.057449
   2.96928      9.013228
   2.93882      8.898001
   2.90835      8.741123
   2.87789      8.562450
   2.84742      8.373024
   2.81696      8.179158
   2.78649      7.984893
   2.75603      7.793201
   2.72556      7.606693
   2.69510      7.428450
   2.66463      7.263311
   2.63417      7.121831
   2.60370      7.031898
   2.57324      7.042414
   2.54277      7.146868
   2.51230      7.288746
   2.48184      7.421582
   2.45137      7.372681
   2.42091      7.272621
   2.39044      7.184644
   2.35998      7.109709
   2.32951      7.047597
   2.29905      6.997615
   2.26858      6.958590
   2.23812      6.928617
   2.20765      6.904754
   2.17719      6.883009
   2.14672      6.861246
   2.11626      6.849737
   2.11626      6.849737
   2.08510      6.859841
   2.05393      6.871254
   2.02277      6.872263
   1.99161      6.872043
   1.96045      6.879765
   1.92929      6.900665
   1.89813      6.937526
   1.86696      6.991273
   1.83580      7.060255
   1.80464      7.130795
   1.77348      7.146941
   1.74232      7.125989
   1.71116      7.113971
   1.67999      7.128940
   1.64883      7.185437
   1.61767      7.289020
   1.58651      7.428711
   1.55535      7.574776
   1.52419      7.657615
   1.49302      7.633608
   1.46186      7.564040
   1.43070      7.484746
   1.39954      7.406579
   1.36838      7.333953
   1.33722      7.269576
   1.30605      7.215724
   1.27489      7.174703
   1.24373      7.148824
   1.21257      7.139954
   1.21257      7.139954
   1.18210      7.179293
   1.15164      7.278008
   1.12117      7.408680
   1.09071      7.555869
   1.06024      7.710309
   1.02978      7.862073
   0.99931      7.992101
   0.96885      8.057470
   0.93838      8.009020
   0.90792      7.866544
   0.87745      7.679444
   0.84699      7.477856
   0.81652      7.275441
   0.78606      7.078189
   0.75559      6.889212
   0.72513      6.710807
   0.69466      6.545916
   0.66419      6.404590
   0.63373      6.367702
   0.60326      6.464178
   0.57280      6.587400
   0.54233      6.715060
   0.51187      6.810643
   0.48140      6.765278
   0.45094      6.708829
   0.42047      6.666115
   0.39001      6.642681
   0.35954      6.645907
   0.32908      6.657075
   0.32908      6.657075
   0.31773      6.657652
   0.30638      6.659376
   0.29503      6.662213
   0.28369      6.666112
   0.27234      6.670935
   0.26099      6.676513
   0.24964      6.682279
   0.23830      6.686662
   0.22695      6.684506
   0.21560      6.667365
   0.20425      6.639637
   0.19291      6.618935
   0.18156      6.633609
   0.17021      6.649018
   0.15886      6.665152
   0.14752      6.681889
   0.13617      6.699084
   0.12482      6.716585
   0.11347      6.734146
   0.10213      6.751589
   0.09078      6.768663
   0.07943      6.785007
   0.06808      6.800313
   0.05674      6.814211
   0.04539      6.826325
   0.03404      6.836247
   0.02269      6.843634
   0.01135      6.848194
   0.00000      6.849737
 
# Band-Index   47
   0.00000      6.995562
   0.01135      6.993746
   0.02269      6.988398
   0.03404      6.979805
   0.04539      6.968391
   0.05674      6.954647
   0.06808      6.939110
   0.07943      6.922262
   0.09078      6.904546
   0.10213      6.886318
   0.11347      6.867959
   0.12482      6.849734
   0.13617      6.831828
   0.14752      6.814486
   0.15886      6.797885
   0.17021      6.782220
   0.18156      6.767735
   0.19291      6.754745
   0.20425      6.744388
   0.21560      6.739485
   0.22695      6.748225
   0.23830      6.774989
   0.24964      6.811272
   0.26099      6.851853
   0.27234      6.895066
   0.28369      6.940228
   0.29503      6.986839
   0.30638      7.034111
   0.31773      7.079401
   0.32908      7.105798
   0.32908      7.105798
   0.35954      7.119174
   0.39001      7.129775
   0.42047      7.107010
   0.45094      7.051800
   0.48140      6.967025
   0.51187      6.882783
   0.54233      6.938672
   0.57280      7.036026
   0.60326      7.148120
   0.63373      7.272601
   0.66419      7.404784
   0.69466      7.484375
   0.72513      7.516428
   0.75559      7.562149
   0.78606      7.626924
   0.81652      7.711835
   0.84699      7.817148
   0.87745      7.943313
   0.90792      8.092331
   0.93838      8.266259
   0.96885      8.455971
   0.99931      8.645761
   1.02978      8.835343
   1.06024      9.027914
   1.09071      9.219203
   1.12117      9.400185
   1.15164      9.557383
   1.18210      9.670753
   1.21257      9.713730
   1.21257      9.713730
   1.24373      9.674873
   1.27489      9.575091
   1.30605      9.440373
   1.33722      9.286962
   1.36838      9.117937
   1.39954      8.906767
   1.43070      8.661116
   1.46186      8.419042
   1.49302      8.200160
   1.52419      8.042872
   1.55535      8.009706
   1.58651      8.056702
   1.61767      8.076238
   1.64883      7.906334
   1.67999      7.730600
   1.71116      7.569383
   1.74232      7.426246
   1.77348      7.309145
   1.80464      7.257498
   1.83580      7.284031
   1.86696      7.328304
   1.89813      7.368698
   1.92929      7.373904
   1.96045      7.298991
   1.99161      7.200782
   2.02277      7.113056
   2.05393      7.045906
   2.08510      7.006799
   2.11626      6.995562
   2.11626      6.995562
   2.14672      7.006158
   2.17719      7.032670
   2.20765      7.063199
   2.23812      7.092406
   2.26858      7.124000
   2.29905      7.163966
   2.32951      7.216463
   2.35998      7.282847
   2.39044      7.361676
   2.42091      7.445441
   2.45137      7.499096
   2.48184      7.499799
   2.51230      7.622142
   2.54277      7.762931
   2.57324      7.916853
   2.60370      8.083137
   2.63417      8.261134
   2.66463      8.450199
   2.69510      8.649545
   2.72556      8.858218
   2.75603      9.074763
   2.78649      9.296653
   2.81696      9.517319
   2.84742      9.714500
   2.87789      9.847647
   2.90835      9.890873
   2.93882      9.886187
   2.96928      9.857119
   2.99975      9.840020
 
# Band-Index   48
   2.99975      9.840020
   2.96928      9.857119
   2.93882      9.886187
   2.90835      9.890873
   2.87789      9.847647
   2.84742      9.714500
   2.81696      9.517319
   2.78649      9.296653
   2.75603      9.074763
   2.72556      8.858218
   2.69510      8.649545
   2.66463      8.450199
   2.63417      8.261134
   2.60370      8.083137
   2.57324      7.916853
   2.54277      7.762931
   2.51230      7.622142
   2.48184      7.499799
   2.45137      7.499096
   2.42091      7.445441
   2.39044      7.361676
   2.35998      7.282847
   2.32951      7.216463
   2.29905      7.163966
   2.26858      7.124000
   2.23812      7.092406
   2.20765      7.063199
   2.17719      7.032670
   2.14672      7.006158
   2.11626      6.995562
   2.11626      6.995562
   2.08510      7.006799
   2.05393      7.045906
   2.02277      7.113056
   1.99161      7.200782
   1.96045      7.298991
   1.92929      7.373904
   1.89813      7.368698
   1.86696      7.328304
   1.83580      7.284031
   1.80464      7.257498
   1.77348      7.309145
   1.74232      7.426246
   1.71116      7.569383
   1.67999      7.730600
   1.64883      7.906334
   1.61767      8.076238
   1.58651      8.056702
   1.55535      8.009706
   1.52419      8.042872
   1.49302      8.200160
   1.46186      8.419042
   1.43070      8.661116
   1.39954      8.906767
   1.36838      9.117937
   1.33722      9.286962
   1.30605      9.440373
   1.27489      9.575091
   1.24373      9.674873
   1.21257      9.713730
   1.21257      9.713730
   1.18210      9.670753
   1.15164      9.557383
   1.12117      9.400185
   1.09071      9.219203
   1.06024      9.027914
   1.02978      8.835343
   0.99931      8.645761
   0.96885      8.455971
   0.93838      8.266259
   0.90792      8.092331
   0.87745      7.943313
   0.84699      7.817148
   0.81652      7.711835
   0.78606      7.626924
   0.75559      7.562149
   0.72513      7.516428
   0.69466      7.484375
   0.66419      7.404784
   0.63373      7.272601
   0.60326      7.148120
   0.57280      7.036026
   0.54233      6.938672
   0.51187      6.882783
   0.48140      6.967025
   0.45094      7.051800
   0.42047      7.107010
   0.39001      7.129775
   0.35954      7.119174
   0.32908      7.105798
   0.32908      7.105798
   0.31773      7.079401
   0.30638      7.034111
   0.29503      6.986839
   0.28369      6.940228
   0.27234      6.895066
   0.26099      6.851853
   0.24964      6.811272
   0.23830      6.774989
   0.22695      6.748225
   0.21560      6.739485
   0.20425      6.744388
   0.19291      6.754745
   0.18156      6.767735
   0.17021      6.782220
   0.15886      6.797885
   0.14752      6.814486
   0.13617      6.831828
   0.12482      6.849734
   0.11347      6.867959
   0.10213      6.886318
   0.09078      6.904546
   0.07943      6.922262
   0.06808      6.939110
   0.05674      6.954647
   0.04539      6.968391
   0.03404      6.979805
   0.02269      6.988398
   0.01135      6.993746
   0.00000      6.995562
 
# Band-Index   49
   0.00000      7.293300
   0.01135      7.297061
   0.02269      7.308250
   0.03404      7.326600
   0.04539      7.351691
   0.05674      7.382986
   0.06808      7.419865
   0.07943      7.461653
   0.09078      7.507643
   0.10213      7.557064
   0.11347      7.609047
   0.12482      7.662500
   0.13617      7.715845
   0.14752      7.766458
   0.15886      7.809472
   0.17021      7.836318
   0.18156      7.837489
   0.19291      7.812573
   0.20425      7.770379
   0.21560      7.719024
   0.22695      7.663125
   0.23830      7.605092
   0.24964      7.546224
   0.26099      7.487297
   0.27234      7.428821
   0.28369      7.371212
   0.29503      7.314909
   0.30638      7.260655
   0.31773      7.211196
   0.32908      7.183408
   0.32908      7.183408
   0.35954      7.186788
   0.39001      7.208747
   0.42047      7.251525
   0.45094      7.298608
   0.48140      7.346630
   0.51187      7.394293
   0.54233      7.436551
   0.57280      7.466157
   0.60326      7.480049
   0.63373      7.484145
   0.66419      7.492756
   0.69466      7.574801
   0.72513      7.730626
   0.75559      7.901667
   0.78606      8.083327
   0.81652      8.274030
   0.84699      8.472022
   0.87745      8.673395
   0.90792      8.827476
   0.93838      8.770985
   0.96885      8.761823
   0.99931      8.879974
   1.02978      9.078188
   1.06024      9.305583
   1.09071      9.537071
   1.12117      9.750649
   1.15164      9.911508
   1.18210      9.993519
   1.21257     10.014689
   1.21257     10.014689
   1.24373      9.998572
   1.27489      9.913854
   1.30605      9.725143
   1.33722      9.481065
   1.36838      9.231712
   1.39954      9.027792
   1.43070      8.875670
   1.46186      8.749168
   1.49302      8.645140
   1.52419      8.564864
   1.55535      8.492020
   1.58651      8.311339
   1.61767      8.153058
   1.64883      8.181186
   1.67999      8.197460
   1.71116      8.168254
   1.74232      8.097052
   1.77348      8.004673
   1.80464      7.904160
   1.83580      7.799181
   1.86696      7.690639
   1.89813      7.582625
   1.92929      7.501135
   1.96045      7.486499
   1.99161      7.471908
   2.02277      7.422242
   2.05393      7.359348
   2.08510      7.311002
   2.11626      7.293300
   2.11626      7.293300
   2.14672      7.309944
   2.17719      7.357939
   2.20765      7.430753
   2.23812      7.517415
   2.26858      7.605858
   2.29905      7.688352
   2.32951      7.763372
   2.35998      7.831934
   2.39044      7.886886
   2.42091      7.856851
   2.45137      7.774227
   2.48184      7.803716
   2.51230      7.918631
   2.54277      8.062054
   2.57324      8.219252
   2.60370      8.384032
   2.63417      8.551240
   2.66463      8.716648
   2.69510      8.879704
   2.72556      9.043758
   2.75603      9.212250
   2.78649      9.386634
   2.81696      9.567029
   2.84742      9.755350
   2.87789      9.894443
   2.90835      9.968006
   2.93882      9.997054
   2.96928     10.006787
   2.99975     10.009071
 
# Band-Index   50
   2.99975     10.009071
   2.96928     10.006787
   2.93882      9.997054
   2.90835      9.968006
   2.87789      9.894443
   2.84742      9.755350
   2.81696      9.567029
   2.78649      9.386634
   2.75603      9.212250
   2.72556      9.043758
   2.69510      8.879704
   2.66463      8.716648
   2.63417      8.551240
   2.60370      8.384032
   2.57324      8.219252
   2.54277      8.062054
   2.51230      7.918631
   2.48184      7.803716
   2.45137      7.774227
   2.42091      7.856851
   2.39044      7.886886
   2.35998      7.831934
   2.32951      7.763372
   2.29905      7.688352
   2.26858      7.605858
   2.23812      7.517415
   2.20765      7.430753
   2.17719      7.357939
   2.14672      7.309944
   2.11626      7.293300
   2.11626      7.293300
   2.08510      7.311002
   2.05393      7.359348
   2.02277      7.422242
   1.99161      7.471908
   1.96045      7.486499
   1.92929      7.501135
   1.89813      7.582625
   1.86696      7.690639
   1.83580      7.799181
   1.80464      7.904160
   1.77348      8.004673
   1.74232      8.097052
   1.71116      8.168254
   1.67999      8.197460
   1.64883      8.181186
   1.61767      8.153058
   1.58651      8.311339
   1.55535      8.492020
   1.52419      8.564864
   1.49302      8.645140
   1.46186      8.749168
   1.43070      8.875670
   1.39954      9.027792
   1.36838      9.231712
   1.33722      9.481065
   1.30605      9.725143
   1.27489      9.913854
   1.24373      9.998572
   1.21257     10.014689
   1.21257     10.014689
   1.18210      9.993519
   1.15164      9.911508
   1.12117      9.750649
   1.09071      9.537071
   1.06024      9.305583
   1.02978      9.078188
   0.99931      8.879974
   0.96885      8.761823
   0.93838      8.770985
   0.90792      8.827476
   0.87745      8.673395
   0.84699      8.472022
   0.81652      8.274030
   0.78606      8.083327
   0.75559      7.901667
   0.72513      7.730626
   0.69466      7.574801
   0.66419      7.492756
   0.63373      7.484145
   0.60326      7.480049
   0.57280      7.466157
   0.54233      7.436551
   0.51187      7.394293
   0.48140      7.346630
   0.45094      7.298608
   0.42047      7.251525
   0.39001      7.208747
   0.35954      7.186788
   0.32908      7.183408
   0.32908      7.183408
   0.31773      7.211196
   0.30638      7.260655
   0.29503      7.314909
   0.28369      7.371212
   0.27234      7.428821
   0.26099      7.487297
   0.24964      7.546224
   0.23830      7.605092
   0.22695      7.663125
   0.21560      7.719024
   0.20425      7.770379
   0.19291      7.812573
   0.18156      7.837489
   0.17021      7.836318
   0.15886      7.809472
   0.14752      7.766458
   0.13617      7.715845
   0.12482      7.662500
   0.11347      7.609047
   0.10213      7.557064
   0.09078      7.507643
   0.07943      7.461653
   0.06808      7.419865
   0.05674      7.382986
   0.04539      7.351691
   0.03404      7.326600
   0.02269      7.308250
   0.01135      7.297061
   0.00000      7.293300
 
# Band-Index   51
   0.00000      7.633607
   0.01135      7.636036
   0.02269      7.643265
   0.03404      7.655125
   0.04539      7.671358
   0.05674      7.691641
   0.06808      7.715680
   0.07943      7.743139
   0.09078      7.773740
   0.10213      7.807182
   0.11347      7.843255
   0.12482      7.881786
   0.13617      7.922609
   0.14752      7.965604
   0.15886      8.010653
   0.17021      8.057664
   0.18156      8.106565
   0.19291      8.157251
   0.20425      8.209703
   0.21560      8.263843
   0.22695      8.319602
   0.23830      8.376905
   0.24964      8.435703
   0.26099      8.496184
   0.27234      8.557382
   0.28369      8.619714
   0.29503      8.628320
   0.30638      8.622706
   0.31773      8.619003
   0.32908      8.617731
   0.32908      8.617731
   0.35954      8.614858
   0.39001      8.583067
   0.42047      8.531680
   0.45094      8.471546
   0.48140      8.372612
   0.51187      8.268028
   0.54233      8.186017
   0.57280      8.138148
   0.60326      8.126935
   0.63373      8.147080
   0.66419      8.191123
   0.69466      8.254207
   0.72513      8.334024
   0.75559      8.429235
   0.78606      8.538379
   0.81652      8.659090
   0.84699      8.786020
   0.87745      8.897966
   0.90792      8.941812
   0.93838      9.122087
   0.96885      9.334860
   0.99931      9.543438
   1.02978      9.725282
   1.06024      9.879665
   1.09071     10.019435
   1.12117     10.154430
   1.15164     10.307409
   1.18210     10.491635
   1.21257     10.622485
   1.21257     10.622485
   1.24373     10.482833
   1.27489     10.306802
   1.30605     10.193976
   1.33722     10.099549
   1.36838      9.961292
   1.39954      9.739920
   1.43070      9.493245
   1.46186      9.245122
   1.49302      9.001782
   1.52419      8.767475
   1.55535      8.564237
   1.58651      8.514289
   1.61767      8.531768
   1.64883      8.584418
   1.67999      8.598264
   1.71116      8.538483
   1.74232      8.490237
   1.77348      8.429063
   1.80464      8.340855
   1.83580      8.224268
   1.86696      8.089553
   1.89813      7.954569
   1.92929      7.833038
   1.96045      7.734446
   1.99161      7.671875
   2.02277      7.650791
   2.05393      7.648030
   2.08510      7.641571
   2.11626      7.633607
   2.11626      7.633607
   2.14672      7.643407
   2.17719      7.673786
   2.20765      7.723473
   2.23812      7.783417
   2.26858      7.852083
   2.29905      7.933053
   2.32951      8.026580
   2.35998      8.114618
   2.39044      8.048179
   2.42091      8.023966
   2.45137      8.086764
   2.48184      8.168165
   2.51230      8.259200
   2.54277      8.359232
   2.57324      8.469222
   2.60370      8.591203
   2.63417      8.728107
   2.66463      8.882249
   2.69510      9.051783
   2.72556      9.229877
   2.75603      9.407825
   2.78649      9.575784
   2.81696      9.717499
   2.84742      9.817641
   2.87789      9.938590
   2.90835     10.061906
   2.93882     10.129452
   2.96928     10.153146
   2.99975     10.158206
 
# Band-Index   52
   2.99975     10.158206
   2.96928     10.153146
   2.93882     10.129452
   2.90835     10.061906
   2.87789      9.938590
   2.84742      9.817641
   2.81696      9.717499
   2.78649      9.575784
   2.75603      9.407825
   2.72556      9.229877
   2.69510      9.051783
   2.66463      8.882249
   2.63417      8.728107
   2.60370      8.591203
   2.57324      8.469222
   2.54277      8.359232
   2.51230      8.259200
   2.48184      8.168165
   2.45137      8.086764
   2.42091      8.023966
   2.39044      8.048179
   2.35998      8.114618
   2.32951      8.026580
   2.29905      7.933053
   2.26858      7.852083
   2.23812      7.783417
   2.20765      7.723473
   2.17719      7.673786
   2.14672      7.643407
   2.11626      7.633607
   2.11626      7.633607
   2.08510      7.641571
   2.05393      7.648030
   2.02277      7.650791
   1.99161      7.671875
   1.96045      7.734446
   1.92929      7.833038
   1.89813      7.954569
   1.86696      8.089553
   1.83580      8.224268
   1.80464      8.340855
   1.77348      8.429063
   1.74232      8.490237
   1.71116      8.538483
   1.67999      8.598264
   1.64883      8.584418
   1.61767      8.531768
   1.58651      8.514289
   1.55535      8.564237
   1.52419      8.767475
   1.49302      9.001782
   1.46186      9.245122
   1.43070      9.493245
   1.39954      9.739920
   1.36838      9.961292
   1.33722     10.099549
   1.30605     10.193976
   1.27489     10.306802
   1.24373     10.482833
   1.21257     10.622485
   1.21257     10.622485
   1.18210     10.491635
   1.15164     10.307409
   1.12117     10.154430
   1.09071     10.019435
   1.06024      9.879665
   1.02978      9.725282
   0.99931      9.543438
   0.96885      9.334860
   0.93838      9.122087
   0.90792      8.941812
   0.87745      8.897966
   0.84699      8.786020
   0.81652      8.659090
   0.78606      8.538379
   0.75559      8.429235
   0.72513      8.334024
   0.69466      8.254207
   0.66419      8.191123
   0.63373      8.147080
   0.60326      8.126935
   0.57280      8.138148
   0.54233      8.186017
   0.51187      8.268028
   0.48140      8.372612
   0.45094      8.471546
   0.42047      8.531680
   0.39001      8.583067
   0.35954      8.614858
   0.32908      8.617731
   0.32908      8.617731
   0.31773      8.619003
   0.30638      8.622706
   0.29503      8.628320
   0.28369      8.619714
   0.27234      8.557382
   0.26099      8.496184
   0.24964      8.435703
   0.23830      8.376905
   0.22695      8.319602
   0.21560      8.263843
   0.20425      8.209703
   0.19291      8.157251
   0.18156      8.106565
   0.17021      8.057664
   0.15886      8.010653
   0.14752      7.965604
   0.13617      7.922609
   0.12482      7.881786
   0.11347      7.843255
   0.10213      7.807182
   0.09078      7.773740
   0.07943      7.743139
   0.06808      7.715681
   0.05674      7.691641
   0.04539      7.671358
   0.03404      7.655125
   0.02269      7.643265
   0.01135      7.636036
   0.00000      7.633607
 
# Band-Index   53
   0.00000      7.687063
   0.01135      7.690176
   0.02269      7.699404
   0.03404      7.714437
   0.04539      7.734820
   0.05674      7.759998
   0.06808      7.789458
   0.07943      7.822643
   0.09078      7.859064
   0.10213      7.898192
   0.11347      7.939506
   0.12482      7.982341
   0.13617      8.025514
   0.14752      8.066448
   0.15886      8.099212
   0.17021      8.118812
   0.18156      8.139295
   0.19291      8.175443
   0.20425      8.225439
   0.21560      8.283552
   0.22695      8.346018
   0.23830      8.410778
   0.24964      8.476703
   0.26099      8.543226
   0.27234      8.607221
   0.28369      8.633612
   0.29503      8.682821
   0.30638      8.745652
   0.31773      8.804764
   0.32908      8.839688
   0.32908      8.844198
   0.35954      8.768204
   0.39001      8.720285
   0.42047      8.670348
   0.45094      8.596799
   0.48140      8.566443
   0.51187      8.555428
   0.54233      8.548723
   0.57280      8.546669
   0.60326      8.547017
   0.63373      8.552519
   0.66419      8.567614
   0.69466      8.595614
   0.72513      8.638746
   0.75559      8.698384
   0.78606      8.775376
   0.81652      8.870096
   0.84699      8.982468
   0.87745      9.109068
   0.90792      9.171676
   0.93838      9.299420
   0.96885      9.453188
   0.99931      9.620343
   1.02978      9.813505
   1.06024     10.026189
   1.09071     10.238944
   1.12117     10.439287
   1.15164     10.612384
   1.18210     10.736557
   1.21257     10.781993
   1.21257     10.781993
   1.24373     10.746960
   1.27489     10.649297
   1.30605     10.485087
   1.33722     10.275163
   1.36838     10.074247
   1.39954      9.929560
   1.43070      9.792095
   1.46186      9.645541
   1.49302      9.490601
   1.52419      9.330600
   1.55535      9.169428
   1.58651      9.011403
   1.61767      8.862172
   1.64883      8.732899
   1.67999      8.700377
   1.71116      8.789523
   1.74232      8.820193
   1.77348      8.726149
   1.80464      8.618376
   1.83580      8.536153
   1.86696      8.454903
   1.89813      8.329824
   1.92929      8.197702
   1.96045      8.065081
   1.99161      7.939662
   2.02277      7.829797
   2.05393      7.744800
   2.08510      7.697557
   2.11626      7.687063
   2.11626      7.687063
   2.14672      7.694325
   2.17719      7.717855
   2.20765      7.763984
   2.23812      7.844655
   2.26858      7.960105
   2.29905      8.094963
   2.32951      8.190639
   2.35998      8.172497
   2.39044      8.264440
   2.42091      8.395110
   2.45137      8.537846
   2.48184      8.690670
   2.51230      8.852267
   2.54277      9.021164
   2.57324      9.195333
   2.60370      9.371372
   2.63417      9.506966
   2.66463      9.511734
   2.69510      9.530478
   2.72556      9.567710
   2.75603      9.622709
   2.78649      9.694237
   2.81696      9.786555
   2.84742      9.906129
   2.87789     10.028297
   2.90835     10.125392
   2.93882     10.199635
   2.96928     10.248050
   2.99975     10.265026
 
# Band-Index   54
   2.99975     10.265026
   2.96928     10.248050
   2.93882     10.199635
   2.90835     10.125392
   2.87789     10.028297
   2.84742      9.906129
   2.81696      9.786555
   2.78649      9.694237
   2.75603      9.622709
   2.72556      9.567710
   2.69510      9.530478
   2.66463      9.511734
   2.63417      9.506966
   2.60370      9.371373
   2.57324      9.195333
   2.54277      9.021164
   2.51230      8.852268
   2.48184      8.690670
   2.45137      8.537846
   2.42091      8.395110
   2.39044      8.264440
   2.35998      8.172497
   2.32951      8.190639
   2.29905      8.094963
   2.26858      7.960105
   2.23812      7.844655
   2.20765      7.763984
   2.17719      7.717855
   2.14672      7.694325
   2.11626      7.687063
   2.11626      7.687063
   2.08510      7.697557
   2.05393      7.744800
   2.02277      7.829797
   1.99161      7.939662
   1.96045      8.065081
   1.92929      8.197702
   1.89813      8.329824
   1.86696      8.454903
   1.83580      8.536153
   1.80464      8.618376
   1.77348      8.726149
   1.74232      8.820193
   1.71116      8.789523
   1.67999      8.700377
   1.64883      8.732899
   1.61767      8.862172
   1.58651      9.011403
   1.55535      9.169428
   1.52419      9.330600
   1.49302      9.490601
   1.46186      9.645541
   1.43070      9.792095
   1.39954      9.929560
   1.36838     10.074247
   1.33722     10.275163
   1.30605     10.485087
   1.27489     10.649297
   1.24373     10.746960
   1.21257     10.781993
   1.21257     10.781993
   1.18210     10.736557
   1.15164     10.612384
   1.12117     10.439287
   1.09071     10.238944
   1.06024     10.026189
   1.02978      9.813505
   0.99931      9.620343
   0.96885      9.453188
   0.93838      9.299420
   0.90792      9.171676
   0.87745      9.109068
   0.84699      8.982468
   0.81652      8.870096
   0.78606      8.775376
   0.75559      8.698384
   0.72513      8.638746
   0.69466      8.595614
   0.66419      8.567614
   0.63373      8.552519
   0.60326      8.547017
   0.57280      8.546669
   0.54233      8.548723
   0.51187      8.555428
   0.48140      8.566443
   0.45094      8.596799
   0.42047      8.670348
   0.39001      8.720285
   0.35954      8.768204
   0.32908      8.844198
   0.32908      8.839688
   0.31773      8.804764
   0.30638      8.745652
   0.29503      8.682821
   0.28369      8.633612
   0.27234      8.607221
   0.26099      8.543226
   0.24964      8.476703
   0.23830      8.410778
   0.22695      8.346018
   0.21560      8.283552
   0.20425      8.225439
   0.19291      8.175443
   0.18156      8.139295
   0.17021      8.118812
   0.15886      8.099212
   0.14752      8.066448
   0.13617      8.025514
   0.12482      7.982341
   0.11347      7.939506
   0.10213      7.898192
   0.09078      7.859064
   0.07943      7.822643
   0.06808      7.789458
   0.05674      7.759998
   0.04539      7.734820
   0.03404      7.714437
   0.02269      7.699404
   0.01135      7.690176
   0.00000      7.687063
 
# Band-Index   55
   0.00000      8.379671
   0.01135      8.383647
   0.02269      8.389565
   0.03404      8.399564
   0.04539      8.415218
   0.05674      8.429777
   0.06808      8.447646
   0.07943      8.472160
   0.09078      8.497584
   0.10213      8.488845
   0.11347      8.429543
   0.12482      8.372330
   0.13617      8.318540
   0.14752      8.273447
   0.15886      8.247835
   0.17021      8.255146
   0.18156      8.290736
   0.19291      8.339912
   0.20425      8.395389
   0.21560      8.454270
   0.22695      8.514566
   0.23830      8.572874
   0.24964      8.621282
   0.26099      8.645168
   0.27234      8.648910
   0.28369      8.682010
   0.29503      8.746110
   0.30638      8.810376
   0.31773      8.869153
   0.32908      8.912440
   0.32908      8.910556
   0.35954      8.894136
   0.39001      8.825648
   0.42047      8.750532
   0.45094      8.695959
   0.48140      8.667637
   0.51187      8.655261
   0.54233      8.653069
   0.57280      8.676670
   0.60326      8.743488
   0.63373      8.857583
   0.66419      9.012543
   0.69466      9.078051
   0.72513      9.154349
   0.75559      9.244958
   0.78606      9.351266
   0.81652      9.454844
   0.84699      9.314075
   0.87745      9.179746
   0.90792      9.266638
   0.93838      9.431922
   0.96885      9.613680
   0.99931      9.808113
   1.02978     10.011214
   1.06024     10.218236
   1.09071     10.423690
   1.12117     10.619259
   1.15164     10.787022
   1.18210     10.870267
   1.21257     10.827989
   1.21257     10.827989
   1.24373     10.879399
   1.27489     10.801937
   1.30605     10.660269
   1.33722     10.510895
   1.36838     10.359077
   1.39954     10.207600
   1.43070     10.060555
   1.46186      9.921503
   1.49302      9.792276
   1.52419      9.672864
   1.55535      9.561380
   1.58651      9.454727
   1.61767      9.349455
   1.64883      9.242554
   1.67999      9.132796
   1.71116      9.023085
   1.74232      8.929819
   1.77348      8.819247
   1.80464      8.700195
   1.83580      8.582315
   1.86696      8.498469
   1.89813      8.483669
   1.92929      8.490312
   1.96045      8.505079
   1.99161      8.504440
   2.02277      8.447416
   2.05393      8.411604
   2.08510      8.389877
   2.11626      8.380752
   2.11626      8.380752
   2.14672      8.394735
   2.17719      8.427689
   2.20765      8.462503
   2.23812      8.478462
   2.26858      8.465702
   2.29905      8.433570
   2.32951      8.437380
   2.35998      8.566458
   2.39044      8.753863
   2.42091      8.952946
   2.45137      9.148673
   2.48184      9.332898
   2.51230      9.498888
   2.54277      9.585217
   2.57324      9.555022
   2.60370      9.529705
   2.63417      9.553353
   2.66463      9.713030
   2.69510      9.854784
   2.72556      9.962088
   2.75603     10.031028
   2.78649     10.070456
   2.81696     10.094835
   2.84742     10.121929
   2.87789     10.189928
   2.90835     10.341446
   2.93882     10.520854
   2.96928     10.660725
   2.99975     10.717416
 
# Band-Index   56
   2.99975     10.717416
   2.96928     10.660725
   2.93882     10.520854
   2.90835     10.341446
   2.87789     10.189928
   2.84742     10.121929
   2.81696     10.094835
   2.78649     10.070456
   2.75603     10.031028
   2.72556      9.962088
   2.69510      9.854784
   2.66463      9.713030
   2.63417      9.553353
   2.60370      9.529705
   2.57324      9.555022
   2.54277      9.585217
   2.51230      9.498888
   2.48184      9.332898
   2.45137      9.148673
   2.42091      8.952946
   2.39044      8.753863
   2.35998      8.566458
   2.32951      8.437380
   2.29905      8.433570
   2.26858      8.465702
   2.23812      8.478462
   2.20765      8.462503
   2.17719      8.427689
   2.14672      8.394735
   2.11626      8.380752
   2.11626      8.380752
   2.08510      8.389877
   2.05393      8.411604
   2.02277      8.447416
   1.99161      8.504440
   1.96045      8.505080
   1.92929      8.490312
   1.89813      8.483669
   1.86696      8.498469
   1.83580      8.582315
   1.80464      8.700195
   1.77348      8.819247
   1.74232      8.929819
   1.71116      9.023085
   1.67999      9.132797
   1.64883      9.242554
   1.61767      9.349455
   1.58651      9.454727
   1.55535      9.561380
   1.52419      9.672864
   1.49302      9.792276
   1.46186      9.921503
   1.43070     10.060555
   1.39954     10.207600
   1.36838     10.359077
   1.33722     10.510895
   1.30605     10.660269
   1.27489     10.801937
   1.24373     10.879399
   1.21257     10.827989
   1.21257     10.827989
   1.18210     10.870267
   1.15164     10.787022
   1.12117     10.619259
   1.09071     10.423690
   1.06024     10.218236
   1.02978     10.011214
   0.99931      9.808113
   0.96885      9.613680
   0.93838      9.431922
   0.90792      9.266638
   0.87745      9.179746
   0.84699      9.314075
   0.81652      9.454844
   0.78606      9.351266
   0.75559      9.244958
   0.72513      9.154349
   0.69466      9.078058
   0.66419      9.012544
   0.63373      8.857583
   0.60326      8.743488
   0.57280      8.676670
   0.54233      8.653069
   0.51187      8.655261
   0.48140      8.667637
   0.45094      8.695959
   0.42047      8.750533
   0.39001      8.825648
   0.35954      8.894136
   0.32908      8.910556
   0.32908      8.912440
   0.31773      8.869153
   0.30638      8.810376
   0.29503      8.746110
   0.28369      8.682010
   0.27234      8.648910
   0.26099      8.645168
   0.24964      8.621282
   0.23830      8.572874
   0.22695      8.514566
   0.21560      8.454270
   0.20425      8.395389
   0.19291      8.339912
   0.18156      8.290736
   0.17021      8.255146
   0.15886      8.247835
   0.14752      8.273447
   0.13617      8.318540
   0.12482      8.372330
   0.11347      8.429543
   0.10213      8.488846
   0.09078      8.497584
   0.07943      8.472160
   0.06808      8.447646
   0.05674      8.429777
   0.04539      8.415218
   0.03404      8.399564
   0.02269      8.389565
   0.01135      8.383647
   0.00000      8.386397
